# n + Pb208: Gamma-ray intensity - 208Pb: Level  6 --> Level  3 - gamma energy    0.471500
# E-initial  =   3.946578 E-final=   3.475078
# E-threshold= 3.96572E+00
# # energies =    67
#    E           xs
 1.00000E-11 0.00000E+00
 2.53000E-08 0.00000E+00
 2.00000E-07 0.00000E+00
 1.00000E-06 0.00000E+00
 1.00000E-03 0.00000E+00
 2.00000E-03 0.00000E+00
 5.00000E-03 0.00000E+00
 1.00000E-02 0.00000E+00
 2.00000E-02 0.00000E+00
 5.00000E-02 0.00000E+00
 1.00000E-01 0.00000E+00
 2.00000E-01 0.00000E+00
 3.00000E-01 0.00000E+00
 4.00000E-01 0.00000E+00
 5.00000E-01 0.00000E+00
 7.50000E-01 0.00000E+00
 1.00000E+00 0.00000E+00
 1.20000E+00 0.00000E+00
 1.40000E+00 0.00000E+00
 1.60000E+00 0.00000E+00
 1.80000E+00 0.00000E+00
 2.00000E+00 0.00000E+00
 2.20000E+00 0.00000E+00
 2.40000E+00 0.00000E+00
 2.60000E+00 0.00000E+00
 2.80000E+00 0.00000E+00
 3.00000E+00 0.00000E+00
 3.20000E+00 0.00000E+00
 3.40000E+00 0.00000E+00
 3.60000E+00 0.00000E+00
 3.80000E+00 0.00000E+00
 4.00000E+00 4.17754E+00
 4.20000E+00 1.19465E+01
 4.40000E+00 1.62237E+01
 4.60000E+00 1.78811E+01
 4.80000E+00 1.81012E+01
 5.00000E+00 1.77370E+01
 5.50000E+00 1.64267E+01
 6.00000E+00 1.52177E+01
 6.50000E+00 1.41761E+01
 7.00000E+00 1.34675E+01
 7.50000E+00 1.30716E+01
 8.00000E+00 1.22989E+01
 8.50000E+00 1.07377E+01
 9.00000E+00 8.73969E+00
 9.50000E+00 6.75563E+00
 1.00000E+01 5.03400E+00
 1.10000E+01 2.72960E+00
 1.20000E+01 1.64189E+00
 1.30000E+01 1.16166E+00
 1.40000E+01 9.38427E-01
 1.50000E+01 8.21064E-01
 1.60000E+01 7.41978E-01
 1.70000E+01 7.00711E-01
 1.80000E+01 6.55072E-01
 1.90000E+01 6.14235E-01
 2.00000E+01 5.82385E-01
 2.10000E+01 5.53749E-01
 2.20000E+01 5.29711E-01
 2.30000E+01 5.05388E-01
 2.40000E+01 4.76657E-01
 2.50000E+01 4.55106E-01
 2.60000E+01 4.31674E-01
 2.70000E+01 4.10295E-01
 2.80000E+01 3.97303E-01
 2.90000E+01 3.84117E-01
 3.00000E+01 3.61752E-01
