# n + Pb208: Gamma-ray intensity - 208Pb: Level  3 --> Level  2 - gamma energy    0.277367
# E-initial  =   3.475078 E-final=   3.197711
# E-threshold= 3.49193E+00
# # energies =    67
#    E           xs
 1.00000E-11 0.00000E+00
 2.53000E-08 0.00000E+00
 2.00000E-07 0.00000E+00
 1.00000E-06 0.00000E+00
 1.00000E-03 0.00000E+00
 2.00000E-03 0.00000E+00
 5.00000E-03 0.00000E+00
 1.00000E-02 0.00000E+00
 2.00000E-02 0.00000E+00
 5.00000E-02 0.00000E+00
 1.00000E-01 0.00000E+00
 2.00000E-01 0.00000E+00
 3.00000E-01 0.00000E+00
 4.00000E-01 0.00000E+00
 5.00000E-01 0.00000E+00
 7.50000E-01 0.00000E+00
 1.00000E+00 0.00000E+00
 1.20000E+00 0.00000E+00
 1.40000E+00 0.00000E+00
 1.60000E+00 0.00000E+00
 1.80000E+00 0.00000E+00
 2.00000E+00 0.00000E+00
 2.20000E+00 0.00000E+00
 2.40000E+00 0.00000E+00
 2.60000E+00 0.00000E+00
 2.80000E+00 0.00000E+00
 3.00000E+00 0.00000E+00
 3.20000E+00 0.00000E+00
 3.40000E+00 0.00000E+00
 3.60000E+00 2.44370E+01
 3.80000E+00 5.00609E+01
 4.00000E+00 6.86767E+01
 4.20000E+00 7.74740E+01
 4.40000E+00 8.05135E+01
 4.60000E+00 8.14478E+01
 4.80000E+00 8.17825E+01
 5.00000E+00 8.19050E+01
 5.50000E+00 8.07367E+01
 6.00000E+00 7.77660E+01
 6.50000E+00 7.51543E+01
 7.00000E+00 7.35324E+01
 7.50000E+00 7.26573E+01
 8.00000E+00 6.91794E+01
 8.50000E+00 6.12057E+01
 9.00000E+00 5.05624E+01
 9.50000E+00 3.96740E+01
 1.00000E+01 2.99848E+01
 1.10000E+01 1.66566E+01
 1.20000E+01 1.02484E+01
 1.30000E+01 7.42402E+00
 1.40000E+01 6.10108E+00
 1.50000E+01 5.37513E+00
 1.60000E+01 4.86764E+00
 1.70000E+01 4.57353E+00
 1.80000E+01 4.25610E+00
 1.90000E+01 3.97112E+00
 2.00000E+01 3.74229E+00
 2.10000E+01 3.53379E+00
 2.20000E+01 3.35180E+00
 2.30000E+01 3.17759E+00
 2.40000E+01 2.98038E+00
 2.50000E+01 2.81983E+00
 2.60000E+01 2.66371E+00
 2.70000E+01 2.53140E+00
 2.80000E+01 2.45175E+00
 2.90000E+01 2.36713E+00
 3.00000E+01 2.24527E+00
