# n + Pb208: Gamma-ray intensity - 209Pb: Level  6 --> Level  0 - gamma energy    2.315930
# E-initial  =   2.315930 E-final=   0.000000
# E-threshold= 0.00000E+00
# # energies =    67
#    E           xs
 1.00000E-11 0.00000E+00
 2.53000E-08 0.00000E+00
 2.00000E-07 0.00000E+00
 1.00000E-06 2.99478E+01
 1.00000E-03 8.51028E-02
 2.00000E-03 4.98431E-02
 5.00000E-03 2.79594E-02
 1.00000E-02 1.88459E-02
 2.00000E-02 1.17146E-02
 5.00000E-02 5.87078E-03
 1.00000E-01 3.66263E-03
 2.00000E-01 2.45802E-03
 3.00000E-01 2.06901E-03
 4.00000E-01 1.91596E-03
 5.00000E-01 1.87044E-03
 7.50000E-01 1.99353E-03
 1.00000E+00 2.31094E-03
 1.20000E+00 2.67510E-03
 1.40000E+00 3.14378E-03
 1.60000E+00 3.71068E-03
 1.80000E+00 4.39616E-03
 2.00000E+00 5.22141E-03
 2.20000E+00 6.19756E-03
 2.40000E+00 7.38833E-03
 2.60000E+00 8.80491E-03
 2.80000E+00 7.65785E-03
 3.00000E+00 7.67102E-03
 3.20000E+00 8.07378E-03
 3.40000E+00 8.42479E-03
 3.60000E+00 8.85207E-03
 3.80000E+00 8.98838E-03
 4.00000E+00 9.15389E-03
 4.20000E+00 8.26231E-03
 4.40000E+00 6.92070E-03
 4.60000E+00 5.89710E-03
 4.80000E+00 5.05016E-03
 5.00000E+00 4.27429E-03
 5.50000E+00 3.17963E-03
 6.00000E+00 2.42536E-03
 6.50000E+00 2.12116E-03
 7.00000E+00 1.90086E-03
 7.50000E+00 1.93820E-03
 8.00000E+00 2.10411E-03
 8.50000E+00 2.32302E-03
 9.00000E+00 2.78776E-03
 9.50000E+00 3.38579E-03
 1.00000E+01 4.10424E-03
 1.10000E+01 5.66020E-03
 1.20000E+01 6.56992E-03
 1.30000E+01 6.10104E-03
 1.40000E+01 5.19963E-03
 1.50000E+01 4.27243E-03
 1.60000E+01 3.49738E-03
 1.70000E+01 2.97435E-03
 1.80000E+01 2.37891E-03
 1.90000E+01 2.11345E-03
 2.00000E+01 1.86502E-03
 2.10000E+01 1.65220E-03
 2.20000E+01 1.48617E-03
 2.30000E+01 1.36104E-03
 2.40000E+01 1.23478E-03
 2.50000E+01 1.13793E-03
 2.60000E+01 1.06367E-03
 2.70000E+01 9.84548E-04
 2.80000E+01 8.62914E-04
 2.90000E+01 8.13663E-04
 3.00000E+01 7.73753E-04
