# n + Pb208: Gamma-ray intensity - 208Pb: Level  8 --> Level  2 - gamma energy    0.797727
# E-initial  =   3.995438 E-final=   3.197711
# E-threshold= 4.01482E+00
# # energies =    67
#    E           xs
 1.00000E-11 0.00000E+00
 2.53000E-08 0.00000E+00
 2.00000E-07 0.00000E+00
 1.00000E-06 0.00000E+00
 1.00000E-03 0.00000E+00
 2.00000E-03 0.00000E+00
 5.00000E-03 0.00000E+00
 1.00000E-02 0.00000E+00
 2.00000E-02 0.00000E+00
 5.00000E-02 0.00000E+00
 1.00000E-01 0.00000E+00
 2.00000E-01 0.00000E+00
 3.00000E-01 0.00000E+00
 4.00000E-01 0.00000E+00
 5.00000E-01 0.00000E+00
 7.50000E-01 0.00000E+00
 1.00000E+00 0.00000E+00
 1.20000E+00 0.00000E+00
 1.40000E+00 0.00000E+00
 1.60000E+00 0.00000E+00
 1.80000E+00 0.00000E+00
 2.00000E+00 0.00000E+00
 2.20000E+00 0.00000E+00
 2.40000E+00 0.00000E+00
 2.60000E+00 0.00000E+00
 2.80000E+00 0.00000E+00
 3.00000E+00 0.00000E+00
 3.20000E+00 0.00000E+00
 3.40000E+00 0.00000E+00
 3.60000E+00 0.00000E+00
 3.80000E+00 0.00000E+00
 4.00000E+00 0.00000E+00
 4.20000E+00 1.48124E+01
 4.40000E+00 2.19476E+01
 4.60000E+00 2.50737E+01
 4.80000E+00 2.57501E+01
 5.00000E+00 2.53289E+01
 5.50000E+00 2.33316E+01
 6.00000E+00 2.15087E+01
 6.50000E+00 1.99511E+01
 7.00000E+00 1.88612E+01
 7.50000E+00 1.82387E+01
 8.00000E+00 1.71185E+01
 8.50000E+00 1.49154E+01
 9.00000E+00 1.21167E+01
 9.50000E+00 9.34924E+00
 1.00000E+01 6.95430E+00
 1.10000E+01 3.75769E+00
 1.20000E+01 2.25040E+00
 1.30000E+01 1.58404E+00
 1.40000E+01 1.27435E+00
 1.50000E+01 1.11289E+00
 1.60000E+01 1.00542E+00
 1.70000E+01 9.50502E-01
 1.80000E+01 8.89622E-01
 1.90000E+01 8.34967E-01
 2.00000E+01 7.92915E-01
 2.10000E+01 7.54949E-01
 2.20000E+01 7.23539E-01
 2.30000E+01 6.91308E-01
 2.40000E+01 6.52568E-01
 2.50000E+01 6.24042E-01
 2.60000E+01 5.92208E-01
 2.70000E+01 5.62773E-01
 2.80000E+01 5.44925E-01
 2.90000E+01 5.26842E-01
 3.00000E+01 4.95281E-01
