# n + Pb208: Gamma-ray intensity - 207Pb: Level  2 --> Level  0 - gamma energy    0.897698
# E-initial  =   0.897698 E-final=   0.000000
# E-threshold= 8.30566E+00
# # energies =    67
#    E           xs
 1.00000E-11 0.00000E+00
 2.53000E-08 0.00000E+00
 2.00000E-07 0.00000E+00
 1.00000E-06 0.00000E+00
 1.00000E-03 0.00000E+00
 2.00000E-03 0.00000E+00
 5.00000E-03 0.00000E+00
 1.00000E-02 0.00000E+00
 2.00000E-02 0.00000E+00
 5.00000E-02 0.00000E+00
 1.00000E-01 0.00000E+00
 2.00000E-01 0.00000E+00
 3.00000E-01 0.00000E+00
 4.00000E-01 0.00000E+00
 5.00000E-01 0.00000E+00
 7.50000E-01 0.00000E+00
 1.00000E+00 0.00000E+00
 1.20000E+00 0.00000E+00
 1.40000E+00 0.00000E+00
 1.60000E+00 0.00000E+00
 1.80000E+00 0.00000E+00
 2.00000E+00 0.00000E+00
 2.20000E+00 0.00000E+00
 2.40000E+00 0.00000E+00
 2.60000E+00 0.00000E+00
 2.80000E+00 0.00000E+00
 3.00000E+00 0.00000E+00
 3.20000E+00 0.00000E+00
 3.40000E+00 0.00000E+00
 3.60000E+00 0.00000E+00
 3.80000E+00 0.00000E+00
 4.00000E+00 0.00000E+00
 4.20000E+00 0.00000E+00
 4.40000E+00 0.00000E+00
 4.60000E+00 0.00000E+00
 4.80000E+00 0.00000E+00
 5.00000E+00 0.00000E+00
 5.50000E+00 0.00000E+00
 6.00000E+00 0.00000E+00
 6.50000E+00 0.00000E+00
 7.00000E+00 0.00000E+00
 7.50000E+00 0.00000E+00
 8.00000E+00 0.00000E+00
 8.50000E+00 1.19576E+00
 9.00000E+00 2.32591E+01
 9.50000E+00 6.82416E+01
 1.00000E+01 1.18597E+02
 1.10000E+01 2.00239E+02
 1.20000E+01 2.24657E+02
 1.30000E+01 2.09847E+02
 1.40000E+01 1.85966E+02
 1.50000E+01 1.66168E+02
 1.60000E+01 1.45135E+02
 1.70000E+01 1.21410E+02
 1.80000E+01 9.84601E+01
 1.90000E+01 7.84353E+01
 2.00000E+01 6.25303E+01
 2.10000E+01 5.04126E+01
 2.20000E+01 4.24142E+01
 2.30000E+01 3.69966E+01
 2.40000E+01 3.33977E+01
 2.50000E+01 3.07858E+01
 2.60000E+01 2.89971E+01
 2.70000E+01 2.74611E+01
 2.80000E+01 2.61633E+01
 2.90000E+01 2.53164E+01
 3.00000E+01 2.42566E+01
