# n + Pb208: Gamma-ray intensity - 209Pb: Level  6 --> Level  4 - gamma energy    0.283720
# E-initial  =   2.315930 E-final=   2.032210
# E-threshold= 0.00000E+00
# # energies =    67
#    E           xs
 1.00000E-11 0.00000E+00
 2.53000E-08 0.00000E+00
 2.00000E-07 0.00000E+00
 1.00000E-06 1.42650E+02
 1.00000E-03 4.05369E-01
 2.00000E-03 2.37417E-01
 5.00000E-03 1.33179E-01
 1.00000E-02 8.97684E-02
 2.00000E-02 5.58000E-02
 5.00000E-02 2.79642E-02
 1.00000E-01 1.74462E-02
 2.00000E-01 1.17083E-02
 3.00000E-01 9.85531E-03
 4.00000E-01 9.12627E-03
 5.00000E-01 8.90945E-03
 7.50000E-01 9.49577E-03
 1.00000E+00 1.10077E-02
 1.20000E+00 1.27423E-02
 1.40000E+00 1.49747E-02
 1.60000E+00 1.76750E-02
 1.80000E+00 2.09402E-02
 2.00000E+00 2.48711E-02
 2.20000E+00 2.95208E-02
 2.40000E+00 3.51927E-02
 2.60000E+00 4.19403E-02
 2.80000E+00 3.64766E-02
 3.00000E+00 3.65393E-02
 3.20000E+00 3.84577E-02
 3.40000E+00 4.01297E-02
 3.60000E+00 4.21650E-02
 3.80000E+00 4.28142E-02
 4.00000E+00 4.36026E-02
 4.20000E+00 3.93558E-02
 4.40000E+00 3.29653E-02
 4.60000E+00 2.80896E-02
 4.80000E+00 2.40554E-02
 5.00000E+00 2.03597E-02
 5.50000E+00 1.51455E-02
 6.00000E+00 1.15527E-02
 6.50000E+00 1.01037E-02
 7.00000E+00 9.05435E-03
 7.50000E+00 9.23221E-03
 8.00000E+00 1.00225E-02
 8.50000E+00 1.10652E-02
 9.00000E+00 1.32789E-02
 9.50000E+00 1.61275E-02
 1.00000E+01 1.95497E-02
 1.10000E+01 2.69612E-02
 1.20000E+01 3.12944E-02
 1.30000E+01 2.90610E-02
 1.40000E+01 2.47674E-02
 1.50000E+01 2.03508E-02
 1.60000E+01 1.66591E-02
 1.70000E+01 1.41677E-02
 1.80000E+01 1.13314E-02
 1.90000E+01 1.00670E-02
 2.00000E+01 8.88361E-03
 2.10000E+01 7.86990E-03
 2.20000E+01 7.07905E-03
 2.30000E+01 6.48301E-03
 2.40000E+01 5.88160E-03
 2.50000E+01 5.42031E-03
 2.60000E+01 5.06658E-03
 2.70000E+01 4.68968E-03
 2.80000E+01 4.11031E-03
 2.90000E+01 3.87571E-03
 3.00000E+01 3.68561E-03
