# n + Pb208: Gamma-ray intensity - 208Pb: Level 12 --> Level  3 - gamma energy    0.650269
# E-initial  =   4.125347 E-final=   3.475078
# E-threshold= 4.14535E+00
# # energies =    67
#    E           xs
 1.00000E-11 0.00000E+00
 2.53000E-08 0.00000E+00
 2.00000E-07 0.00000E+00
 1.00000E-06 0.00000E+00
 1.00000E-03 0.00000E+00
 2.00000E-03 0.00000E+00
 5.00000E-03 0.00000E+00
 1.00000E-02 0.00000E+00
 2.00000E-02 0.00000E+00
 5.00000E-02 0.00000E+00
 1.00000E-01 0.00000E+00
 2.00000E-01 0.00000E+00
 3.00000E-01 0.00000E+00
 4.00000E-01 0.00000E+00
 5.00000E-01 0.00000E+00
 7.50000E-01 0.00000E+00
 1.00000E+00 0.00000E+00
 1.20000E+00 0.00000E+00
 1.40000E+00 0.00000E+00
 1.60000E+00 0.00000E+00
 1.80000E+00 0.00000E+00
 2.00000E+00 0.00000E+00
 2.20000E+00 0.00000E+00
 2.40000E+00 0.00000E+00
 2.60000E+00 0.00000E+00
 2.80000E+00 0.00000E+00
 3.00000E+00 0.00000E+00
 3.20000E+00 0.00000E+00
 3.40000E+00 0.00000E+00
 3.60000E+00 0.00000E+00
 3.80000E+00 0.00000E+00
 4.00000E+00 0.00000E+00
 4.20000E+00 3.72572E+00
 4.40000E+00 8.44294E+00
 4.60000E+00 1.13625E+01
 4.80000E+00 1.28233E+01
 5.00000E+00 1.33369E+01
 5.50000E+00 1.31224E+01
 6.00000E+00 1.27016E+01
 6.50000E+00 1.24374E+01
 7.00000E+00 1.23742E+01
 7.50000E+00 1.25348E+01
 8.00000E+00 1.25784E+01
 8.50000E+00 1.19812E+01
 9.00000E+00 1.06180E+01
 9.50000E+00 8.92736E+00
 1.00000E+01 7.27047E+00
 1.10000E+01 4.76197E+00
 1.20000E+01 3.44336E+00
 1.30000E+01 2.82984E+00
 1.40000E+01 2.50795E+00
 1.50000E+01 2.31716E+00
 1.60000E+01 2.17343E+00
 1.70000E+01 2.07666E+00
 1.80000E+01 1.98584E+00
 1.90000E+01 1.90686E+00
 2.00000E+01 1.83379E+00
 2.10000E+01 1.76574E+00
 2.20000E+01 1.69961E+00
 2.30000E+01 1.63774E+00
 2.40000E+01 1.56822E+00
 2.50000E+01 1.51227E+00
 2.60000E+01 1.45523E+00
 2.70000E+01 1.40391E+00
 2.80000E+01 1.36125E+00
 2.90000E+01 1.31553E+00
 3.00000E+01 1.26621E+00
