# n + Pb208: Gamma-ray intensity - 208Pb: Level 13 --> Level  1 - gamma energy    1.529478
# E-initial  =   4.144000 E-final=   2.614522
# E-threshold= 4.16410E+00
# # energies =    67
#    E           xs
 1.00000E-11 0.00000E+00
 2.53000E-08 0.00000E+00
 2.00000E-07 0.00000E+00
 1.00000E-06 0.00000E+00
 1.00000E-03 0.00000E+00
 2.00000E-03 0.00000E+00
 5.00000E-03 0.00000E+00
 1.00000E-02 0.00000E+00
 2.00000E-02 0.00000E+00
 5.00000E-02 0.00000E+00
 1.00000E-01 0.00000E+00
 2.00000E-01 0.00000E+00
 3.00000E-01 0.00000E+00
 4.00000E-01 0.00000E+00
 5.00000E-01 0.00000E+00
 7.50000E-01 0.00000E+00
 1.00000E+00 0.00000E+00
 1.20000E+00 0.00000E+00
 1.40000E+00 0.00000E+00
 1.60000E+00 0.00000E+00
 1.80000E+00 0.00000E+00
 2.00000E+00 0.00000E+00
 2.20000E+00 0.00000E+00
 2.40000E+00 0.00000E+00
 2.60000E+00 0.00000E+00
 2.80000E+00 0.00000E+00
 3.00000E+00 0.00000E+00
 3.20000E+00 0.00000E+00
 3.40000E+00 0.00000E+00
 3.60000E+00 0.00000E+00
 3.80000E+00 0.00000E+00
 4.00000E+00 0.00000E+00
 4.20000E+00 2.25475E-04
 4.40000E+00 8.46958E-04
 4.60000E+00 1.13285E-03
 4.80000E+00 1.20969E-03
 5.00000E+00 1.19326E-03
 5.50000E+00 1.07051E-03
 6.00000E+00 9.40536E-04
 6.50000E+00 7.86131E-04
 7.00000E+00 6.49182E-04
 7.50000E+00 5.52353E-04
 8.00000E+00 4.40255E-04
 8.50000E+00 3.33897E-04
 9.00000E+00 2.47792E-04
 9.50000E+00 1.83593E-04
 1.00000E+01 1.35573E-04
 1.10000E+01 7.82594E-05
 1.20000E+01 5.26815E-05
 1.30000E+01 3.98613E-05
 1.40000E+01 3.37361E-05
 1.50000E+01 2.94206E-05
 1.60000E+01 2.70442E-05
 1.70000E+01 2.65399E-05
 1.80000E+01 2.55866E-05
 1.90000E+01 2.43807E-05
 2.00000E+01 2.44177E-05
 2.10000E+01 2.32305E-05
 2.20000E+01 2.34104E-05
 2.30000E+01 2.23702E-05
 2.40000E+01 2.18738E-05
 2.50000E+01 2.14938E-05
 2.60000E+01 2.02628E-05
 2.70000E+01 1.95420E-05
 2.80000E+01 1.92602E-05
 2.90000E+01 1.88885E-05
 3.00000E+01 1.74784E-05
