# n + Pb208: Gamma-ray intensity - 208Pb: Level  9 --> Level  2 - gamma energy    0.839732
# E-initial  =   4.037443 E-final=   3.197711
# E-threshold= 4.05702E+00
# # energies =    67
#    E           xs
 1.00000E-11 0.00000E+00
 2.53000E-08 0.00000E+00
 2.00000E-07 0.00000E+00
 1.00000E-06 0.00000E+00
 1.00000E-03 0.00000E+00
 2.00000E-03 0.00000E+00
 5.00000E-03 0.00000E+00
 1.00000E-02 0.00000E+00
 2.00000E-02 0.00000E+00
 5.00000E-02 0.00000E+00
 1.00000E-01 0.00000E+00
 2.00000E-01 0.00000E+00
 3.00000E-01 0.00000E+00
 4.00000E-01 0.00000E+00
 5.00000E-01 0.00000E+00
 7.50000E-01 0.00000E+00
 1.00000E+00 0.00000E+00
 1.20000E+00 0.00000E+00
 1.40000E+00 0.00000E+00
 1.60000E+00 0.00000E+00
 1.80000E+00 0.00000E+00
 2.00000E+00 0.00000E+00
 2.20000E+00 0.00000E+00
 2.40000E+00 0.00000E+00
 2.60000E+00 0.00000E+00
 2.80000E+00 0.00000E+00
 3.00000E+00 0.00000E+00
 3.20000E+00 0.00000E+00
 3.40000E+00 0.00000E+00
 3.60000E+00 0.00000E+00
 3.80000E+00 0.00000E+00
 4.00000E+00 0.00000E+00
 4.20000E+00 2.34984E+00
 4.40000E+00 6.44259E+00
 4.60000E+00 1.03726E+01
 4.80000E+00 1.38514E+01
 5.00000E+00 1.72411E+01
 5.50000E+00 2.70950E+01
 6.00000E+00 3.98289E+01
 6.50000E+00 5.52518E+01
 7.00000E+00 7.32220E+01
 7.50000E+00 9.32126E+01
 8.00000E+00 1.13539E+02
 8.50000E+00 1.31853E+02
 9.00000E+00 1.43370E+02
 9.50000E+00 1.42346E+02
 1.00000E+01 1.30614E+02
 1.10000E+01 9.39653E+01
 1.20000E+01 6.09863E+01
 1.30000E+01 4.30316E+01
 1.40000E+01 3.36419E+01
 1.50000E+01 2.95212E+01
 1.60000E+01 2.71799E+01
 1.70000E+01 2.63602E+01
 1.80000E+01 2.51977E+01
 1.90000E+01 2.41039E+01
 2.00000E+01 2.30367E+01
 2.10000E+01 2.20072E+01
 2.20000E+01 2.12917E+01
 2.30000E+01 2.06331E+01
 2.40000E+01 1.93914E+01
 2.50000E+01 1.85881E+01
 2.60000E+01 1.74348E+01
 2.70000E+01 1.64631E+01
 2.80000E+01 1.59267E+01
 2.90000E+01 1.46499E+01
 3.00000E+01 1.38514E+01
