# n + Pb208: Gamma-ray intensity - 209Pb: Level  7 --> Level  0 - gamma energy    2.424000
# E-initial  =   2.424000 E-final=   0.000000
# E-threshold= 0.00000E+00
# # energies =    67
#    E           xs
 1.00000E-11 0.00000E+00
 2.53000E-08 0.00000E+00
 2.00000E-07 0.00000E+00
 1.00000E-06 1.38877E-02
 1.00000E-03 1.25426E-02
 2.00000E-03 1.56604E-02
 5.00000E-03 2.77243E-02
 1.00000E-02 3.03515E-02
 2.00000E-02 2.34925E-02
 5.00000E-02 1.50199E-02
 1.00000E-01 1.29911E-02
 2.00000E-01 1.31714E-02
 3.00000E-01 1.43485E-02
 4.00000E-01 1.54807E-02
 5.00000E-01 1.66014E-02
 7.50000E-01 2.00846E-02
 1.00000E+00 2.48117E-02
 1.20000E+00 2.96302E-02
 1.40000E+00 3.53702E-02
 1.60000E+00 4.22161E-02
 1.80000E+00 5.04421E-02
 2.00000E+00 6.01620E-02
 2.20000E+00 7.16279E-02
 2.40000E+00 8.53292E-02
 2.60000E+00 1.01351E-01
 2.80000E+00 6.77536E-02
 3.00000E+00 6.24717E-02
 3.20000E+00 6.35360E-02
 3.40000E+00 5.79279E-02
 3.60000E+00 5.51559E-02
 3.80000E+00 5.29082E-02
 4.00000E+00 5.11872E-02
 4.20000E+00 4.44943E-02
 4.40000E+00 3.84148E-02
 4.60000E+00 3.37765E-02
 4.80000E+00 2.99585E-02
 5.00000E+00 2.65142E-02
 5.50000E+00 2.05227E-02
 6.00000E+00 1.60166E-02
 6.50000E+00 1.34369E-02
 7.00000E+00 1.17544E-02
 7.50000E+00 1.10910E-02
 8.00000E+00 1.11177E-02
 8.50000E+00 1.15968E-02
 9.00000E+00 1.29412E-02
 9.50000E+00 1.49318E-02
 1.00000E+01 1.77123E-02
 1.10000E+01 2.40236E-02
 1.20000E+01 2.87811E-02
 1.30000E+01 2.85874E-02
 1.40000E+01 2.49664E-02
 1.50000E+01 2.08983E-02
 1.60000E+01 1.72237E-02
 1.70000E+01 1.48507E-02
 1.80000E+01 1.22090E-02
 1.90000E+01 1.08336E-02
 2.00000E+01 9.60901E-03
 2.10000E+01 8.45726E-03
 2.20000E+01 7.54196E-03
 2.30000E+01 6.83684E-03
 2.40000E+01 6.03840E-03
 2.50000E+01 5.46629E-03
 2.60000E+01 5.04042E-03
 2.70000E+01 4.67791E-03
 2.80000E+01 4.24788E-03
 2.90000E+01 3.99652E-03
 3.00000E+01 3.79010E-03
