# n + Pb208: Gamma-ray intensity - 208Pb: Level 13 --> Level 11 - gamma energy    0.058480
# E-initial  =   4.144000 E-final=   4.085520
# E-threshold= 4.16410E+00
# # energies =    67
#    E           xs
 1.00000E-11 0.00000E+00
 2.53000E-08 0.00000E+00
 2.00000E-07 0.00000E+00
 1.00000E-06 0.00000E+00
 1.00000E-03 0.00000E+00
 2.00000E-03 0.00000E+00
 5.00000E-03 0.00000E+00
 1.00000E-02 0.00000E+00
 2.00000E-02 0.00000E+00
 5.00000E-02 0.00000E+00
 1.00000E-01 0.00000E+00
 2.00000E-01 0.00000E+00
 3.00000E-01 0.00000E+00
 4.00000E-01 0.00000E+00
 5.00000E-01 0.00000E+00
 7.50000E-01 0.00000E+00
 1.00000E+00 0.00000E+00
 1.20000E+00 0.00000E+00
 1.40000E+00 0.00000E+00
 1.60000E+00 0.00000E+00
 1.80000E+00 0.00000E+00
 2.00000E+00 0.00000E+00
 2.20000E+00 0.00000E+00
 2.40000E+00 0.00000E+00
 2.60000E+00 0.00000E+00
 2.80000E+00 0.00000E+00
 3.00000E+00 0.00000E+00
 3.20000E+00 0.00000E+00
 3.40000E+00 0.00000E+00
 3.60000E+00 0.00000E+00
 3.80000E+00 0.00000E+00
 4.00000E+00 0.00000E+00
 4.20000E+00 1.50317E-05
 4.40000E+00 5.64639E-05
 4.60000E+00 7.55236E-05
 4.80000E+00 8.06461E-05
 5.00000E+00 7.95506E-05
 5.50000E+00 7.13671E-05
 6.00000E+00 6.27024E-05
 6.50000E+00 5.24088E-05
 7.00000E+00 4.32788E-05
 7.50000E+00 3.68235E-05
 8.00000E+00 2.93503E-05
 8.50000E+00 2.22598E-05
 9.00000E+00 1.65195E-05
 9.50000E+00 1.22395E-05
 1.00000E+01 9.03820E-06
 1.10000E+01 5.21729E-06
 1.20000E+01 3.51210E-06
 1.30000E+01 2.65742E-06
 1.40000E+01 2.24907E-06
 1.50000E+01 1.96138E-06
 1.60000E+01 1.80295E-06
 1.70000E+01 1.76933E-06
 1.80000E+01 1.70577E-06
 1.90000E+01 1.62538E-06
 2.00000E+01 1.62784E-06
 2.10000E+01 1.54870E-06
 2.20000E+01 1.56070E-06
 2.30000E+01 1.49134E-06
 2.40000E+01 1.45825E-06
 2.50000E+01 1.43292E-06
 2.60000E+01 1.35086E-06
 2.70000E+01 1.30280E-06
 2.80000E+01 1.28401E-06
 2.90000E+01 1.25923E-06
 3.00000E+01 1.16522E-06
