# n + Pb208: Gamma-ray intensity - 209Pb: Level  4 --> Level  3 - gamma energy    0.465124
# E-initial  =   2.032210 E-final=   1.567086
# E-threshold= 0.00000E+00
# # energies =    67
#    E           xs
 1.00000E-11 0.00000E+00
 2.53000E-08 0.00000E+00
 2.00000E-07 0.00000E+00
 1.00000E-06 9.64099E+02
 1.00000E-03 3.28123E+00
 2.00000E-03 1.88950E+00
 5.00000E-03 9.54086E-01
 1.00000E-02 5.78701E-01
 2.00000E-02 3.35126E-01
 5.00000E-02 1.57066E-01
 1.00000E-01 9.23831E-02
 2.00000E-01 5.92706E-02
 3.00000E-01 4.90601E-02
 4.00000E-01 4.50850E-02
 5.00000E-01 4.38227E-02
 7.50000E-01 4.63410E-02
 1.00000E+00 5.33991E-02
 1.20000E+00 6.15573E-02
 1.40000E+00 7.22111E-02
 1.60000E+00 8.48836E-02
 1.80000E+00 1.00365E-01
 2.00000E+00 1.18992E-01
 2.20000E+00 1.41010E-01
 2.40000E+00 1.67453E-01
 2.60000E+00 1.99631E-01
 2.80000E+00 1.89001E-01
 3.00000E+00 1.93065E-01
 3.20000E+00 2.05204E-01
 3.40000E+00 2.16138E-01
 3.60000E+00 2.30642E-01
 3.80000E+00 2.38945E-01
 4.00000E+00 2.48830E-01
 4.20000E+00 2.32584E-01
 4.40000E+00 1.96088E-01
 4.60000E+00 1.65454E-01
 4.80000E+00 1.42814E-01
 5.00000E+00 1.20880E-01
 5.50000E+00 9.11055E-02
 6.00000E+00 7.07238E-02
 6.50000E+00 6.27039E-02
 7.00000E+00 5.75562E-02
 7.50000E+00 6.00069E-02
 8.00000E+00 6.64549E-02
 8.50000E+00 7.53551E-02
 9.00000E+00 9.14095E-02
 9.50000E+00 1.11589E-01
 1.00000E+01 1.34711E-01
 1.10000E+01 1.82655E-01
 1.20000E+01 2.05570E-01
 1.30000E+01 1.86764E-01
 1.40000E+01 1.54272E-01
 1.50000E+01 1.26738E-01
 1.60000E+01 1.03916E-01
 1.70000E+01 8.87727E-02
 1.80000E+01 7.14750E-02
 1.90000E+01 6.44253E-02
 2.00000E+01 5.72097E-02
 2.10000E+01 5.08422E-02
 2.20000E+01 4.58463E-02
 2.30000E+01 4.20211E-02
 2.40000E+01 3.81414E-02
 2.50000E+01 3.51787E-02
 2.60000E+01 3.28227E-02
 2.70000E+01 3.03193E-02
 2.80000E+01 2.68092E-02
 2.90000E+01 2.54485E-02
 3.00000E+01 2.43476E-02
