# n + 208Pb: Gamma-ray intensity - 207Pb: Level  4 --> Level  2 - gamma energy    1.442222
# E-initial  =   2.339920 E-final=   0.897698
# E-threshold= 9.75487E+00
# # energies = 67
#    E         xs
 1.000E-11 0.00000E+00
 2.530E-08 0.00000E+00
 2.000E-07 0.00000E+00
 1.000E-06 0.00000E+00
 1.000E-03 0.00000E+00
 2.000E-03 0.00000E+00
 5.000E-03 0.00000E+00
 1.000E-02 0.00000E+00
 2.000E-02 0.00000E+00
 5.000E-02 0.00000E+00
 1.000E-01 0.00000E+00
 2.000E-01 0.00000E+00
 3.000E-01 0.00000E+00
 4.000E-01 0.00000E+00
 5.000E-01 0.00000E+00
 7.500E-01 0.00000E+00
 1.000E+00 0.00000E+00
 1.200E+00 0.00000E+00
 1.400E+00 0.00000E+00
 1.600E+00 0.00000E+00
 1.800E+00 0.00000E+00
 2.000E+00 0.00000E+00
 2.200E+00 0.00000E+00
 2.400E+00 0.00000E+00
 2.600E+00 0.00000E+00
 2.800E+00 0.00000E+00
 3.000E+00 0.00000E+00
 3.200E+00 0.00000E+00
 3.400E+00 0.00000E+00
 3.600E+00 0.00000E+00
 3.800E+00 0.00000E+00
 4.000E+00 0.00000E+00
 4.200E+00 0.00000E+00
 4.400E+00 0.00000E+00
 4.600E+00 0.00000E+00
 4.800E+00 0.00000E+00
 5.000E+00 0.00000E+00
 5.500E+00 0.00000E+00
 6.000E+00 0.00000E+00
 6.500E+00 0.00000E+00
 7.000E+00 0.00000E+00
 7.500E+00 0.00000E+00
 8.000E+00 0.00000E+00
 8.500E+00 0.00000E+00
 9.000E+00 0.00000E+00
 9.500E+00 0.00000E+00
 1.000E+01 2.57382E-02
 1.100E+01 9.52676E-01
 1.200E+01 2.78820E+00
 1.300E+01 4.43094E+00
 1.400E+01 5.32788E+00
 1.500E+01 5.62835E+00
 1.600E+01 5.47030E+00
 1.700E+01 4.84746E+00
 1.800E+01 3.95647E+00
 1.900E+01 3.05969E+00
 2.000E+01 2.34595E+00
 2.100E+01 1.82101E+00
 2.200E+01 1.48627E+00
 2.300E+01 1.26581E+00
 2.400E+01 1.12601E+00
 2.500E+01 1.03022E+00
 2.600E+01 9.61220E-01
 2.700E+01 9.07175E-01
 2.800E+01 8.66870E-01
 2.900E+01 8.26888E-01
 3.000E+01 7.95719E-01
