# n + 208Pb: Gamma-ray intensity - 209Pb: Level 10 --> Level  4 - gamma energy    0.505780
# E-initial  =   2.538000 E-final=   2.032220
# E-threshold= 0.00000E+00
# # energies =    67
#    E           xs
 1.00000E-11 0.00000E+00
 2.53000E-08 0.00000E+00
 2.00000E-07 0.00000E+00
 1.00000E-06 8.16569E-02
 1.00000E-03 1.60254E-03
 2.00000E-03 8.74493E-04
 5.00000E-03 3.92740E-04
 1.00000E-02 2.11573E-04
 2.00000E-02 1.12372E-04
 5.00000E-02 6.41241E-05
 1.00000E-01 4.38489E-05
 2.00000E-01 3.03098E-05
 3.00000E-01 2.57592E-05
 4.00000E-01 2.40878E-05
 5.00000E-01 2.37422E-05
 7.50000E-01 2.57043E-05
 1.00000E+00 3.01171E-05
 1.20000E+00 3.50689E-05
 1.40000E+00 4.11240E-05
 1.60000E+00 4.87554E-05
 1.80000E+00 5.79261E-05
 2.00000E+00 6.88122E-05
 2.20000E+00 8.26516E-05
 2.40000E+00 9.87194E-05
 2.60000E+00 1.16587E-04
 2.80000E+00 1.07750E-04
 3.00000E+00 1.09656E-04
 3.20000E+00 1.17703E-04
 3.40000E+00 1.26988E-04
 3.60000E+00 1.39271E-04
 3.80000E+00 1.47179E-04
 4.00000E+00 1.59179E-04
 4.20000E+00 1.53830E-04
 4.40000E+00 1.26216E-04
 4.60000E+00 1.10841E-04
 4.80000E+00 1.03478E-04
 5.00000E+00 9.24488E-05
 5.50000E+00 7.08970E-05
 6.00000E+00 5.51709E-05
 6.50000E+00 4.68651E-05
 7.00000E+00 4.26363E-05
 7.50000E+00 4.20148E-05
 8.00000E+00 4.64414E-05
 8.50000E+00 5.58980E-05
 9.00000E+00 7.28011E-05
 9.50000E+00 1.02637E-04
 1.00000E+01 1.43787E-04
 1.10000E+01 1.97257E-04
 1.20000E+01 1.56505E-04
 1.30000E+01 1.04288E-04
 1.40000E+01 7.66985E-05
 1.50000E+01 6.63056E-05
 1.60000E+01 5.67794E-05
 1.70000E+01 6.10943E-05
 1.80000E+01 5.83638E-05
 1.90000E+01 5.93011E-05
 2.00000E+01 5.74691E-05
 2.10000E+01 5.09543E-05
 2.20000E+01 4.33119E-05
 2.30000E+01 4.04303E-05
 2.40000E+01 3.15943E-05
 2.50000E+01 2.93257E-05
 2.60000E+01 2.49527E-05
 2.70000E+01 2.37521E-05
 2.80000E+01 2.25876E-05
 2.90000E+01 2.10266E-05
 3.00000E+01 2.04155E-05
