# n + 208Pb: Gamma-ray intensity - 208Pb: Level  8 --> Level  1 - gamma energy    1.381150
# E-initial  =   3.995700 E-final=   2.614550
# E-threshold= 4.01508E+00
# # energies = 67
#    E         xs
 1.000E-11 0.00000E+00
 2.530E-08 0.00000E+00
 2.000E-07 0.00000E+00
 1.000E-06 0.00000E+00
 1.000E-03 0.00000E+00
 2.000E-03 0.00000E+00
 5.000E-03 0.00000E+00
 1.000E-02 0.00000E+00
 2.000E-02 0.00000E+00
 5.000E-02 0.00000E+00
 1.000E-01 0.00000E+00
 2.000E-01 0.00000E+00
 3.000E-01 0.00000E+00
 4.000E-01 0.00000E+00
 5.000E-01 0.00000E+00
 7.500E-01 0.00000E+00
 1.000E+00 0.00000E+00
 1.200E+00 0.00000E+00
 1.400E+00 0.00000E+00
 1.600E+00 0.00000E+00
 1.800E+00 0.00000E+00
 2.000E+00 0.00000E+00
 2.200E+00 0.00000E+00
 2.400E+00 0.00000E+00
 2.600E+00 0.00000E+00
 2.800E+00 0.00000E+00
 3.000E+00 0.00000E+00
 3.200E+00 0.00000E+00
 3.400E+00 0.00000E+00
 3.600E+00 0.00000E+00
 3.800E+00 0.00000E+00
 4.000E+00 0.00000E+00
 4.200E+00 3.76465E+01
 4.400E+00 5.14917E+01
 4.600E+00 5.79346E+01
 4.800E+00 5.96988E+01
 5.000E+00 5.93155E+01
 5.500E+00 5.59387E+01
 6.000E+00 5.26714E+01
 6.500E+00 5.05339E+01
 7.000E+00 4.98818E+01
 7.500E+00 5.05886E+01
 8.000E+00 5.08681E+01
 8.500E+00 4.85612E+01
 9.000E+00 4.30940E+01
 9.500E+00 3.61283E+01
 1.000E+01 2.90159E+01
 1.100E+01 1.75946E+01
 1.200E+01 1.11310E+01
 1.300E+01 7.98818E+00
 1.400E+01 6.44988E+00
 1.500E+01 5.66803E+00
 1.600E+01 5.18076E+00
 1.700E+01 4.90334E+00
 1.800E+01 4.61268E+00
 1.900E+01 4.38103E+00
 2.000E+01 4.17177E+00
 2.100E+01 3.99987E+00
 2.200E+01 3.85716E+00
 2.300E+01 3.70415E+00
 2.400E+01 3.52992E+00
 2.500E+01 3.39596E+00
 2.600E+01 3.23606E+00
 2.700E+01 3.11784E+00
 2.800E+01 3.01197E+00
 2.900E+01 2.90356E+00
 3.000E+01 2.79475E+00
