# n + 208Pb: Gamma-ray intensity - 208Pb: Level 30 --> Level  1 - gamma energy    2.097300
# E-initial  =   4.711820 E-final=   2.614520
# E-threshold= 4.73467E+00
# # energies = 67
#    E         xs
 1.000E-11 0.00000E+00
 2.530E-08 0.00000E+00
 2.000E-07 0.00000E+00
 1.000E-06 0.00000E+00
 1.000E-03 0.00000E+00
 2.000E-03 0.00000E+00
 5.000E-03 0.00000E+00
 1.000E-02 0.00000E+00
 2.000E-02 0.00000E+00
 5.000E-02 0.00000E+00
 1.000E-01 0.00000E+00
 2.000E-01 0.00000E+00
 3.000E-01 0.00000E+00
 4.000E-01 0.00000E+00
 5.000E-01 0.00000E+00
 7.500E-01 0.00000E+00
 1.000E+00 0.00000E+00
 1.200E+00 0.00000E+00
 1.400E+00 0.00000E+00
 1.600E+00 0.00000E+00
 1.800E+00 0.00000E+00
 2.000E+00 0.00000E+00
 2.200E+00 0.00000E+00
 2.400E+00 0.00000E+00
 2.600E+00 0.00000E+00
 2.800E+00 0.00000E+00
 3.000E+00 0.00000E+00
 3.200E+00 0.00000E+00
 3.400E+00 0.00000E+00
 3.600E+00 0.00000E+00
 3.800E+00 0.00000E+00
 4.000E+00 0.00000E+00
 4.200E+00 0.00000E+00
 4.400E+00 0.00000E+00
 4.600E+00 0.00000E+00
 4.800E+00 9.38260E+00
 5.000E+00 2.09949E+01
 5.500E+00 3.15033E+01
 6.000E+00 2.90879E+01
 6.500E+00 2.61381E+01
 7.000E+00 2.37421E+01
 7.500E+00 2.16030E+01
 8.000E+00 1.91000E+01
 8.500E+00 1.60029E+01
 9.000E+00 1.28099E+01
 9.500E+00 9.75978E+00
 1.000E+01 7.18622E+00
 1.100E+01 3.72170E+00
 1.200E+01 2.08678E+00
 1.300E+01 1.34109E+00
 1.400E+01 1.01134E+00
 1.500E+01 8.52585E-01
 1.600E+01 7.74235E-01
 1.700E+01 7.30078E-01
 1.800E+01 6.87614E-01
 1.900E+01 6.47860E-01
 2.000E+01 6.25607E-01
 2.100E+01 5.98070E-01
 2.200E+01 5.73938E-01
 2.300E+01 5.54250E-01
 2.400E+01 5.28235E-01
 2.500E+01 5.07081E-01
 2.600E+01 4.86341E-01
 2.700E+01 4.72977E-01
 2.800E+01 4.57857E-01
 2.900E+01 4.46098E-01
 3.000E+01 4.33291E-01
