# n + 208Pb: Gamma-ray intensity - 208Pb: Level  1 --> Level  0 - gamma energy    2.614550
# E-initial  =   2.614550 E-final=   0.000000
# E-threshold= 2.62723E+00
# # energies = 67
#    E         xs
 1.000E-11 0.00000E+00
 2.530E-08 0.00000E+00
 2.000E-07 0.00000E+00
 1.000E-06 0.00000E+00
 1.000E-03 0.00000E+00
 2.000E-03 0.00000E+00
 5.000E-03 0.00000E+00
 1.000E-02 0.00000E+00
 2.000E-02 0.00000E+00
 5.000E-02 0.00000E+00
 1.000E-01 0.00000E+00
 2.000E-01 0.00000E+00
 3.000E-01 0.00000E+00
 4.000E-01 0.00000E+00
 5.000E-01 0.00000E+00
 7.500E-01 0.00000E+00
 1.000E+00 0.00000E+00
 1.200E+00 0.00000E+00
 1.400E+00 0.00000E+00
 1.600E+00 0.00000E+00
 1.800E+00 0.00000E+00
 2.000E+00 0.00000E+00
 2.200E+00 0.00000E+00
 2.400E+00 0.00000E+00
 2.600E+00 0.00000E+00
 2.800E+00 3.17103E+02
 3.000E+00 5.14977E+02
 3.200E+00 6.64254E+02
 3.400E+00 8.74573E+02
 3.600E+00 1.07133E+03
 3.800E+00 1.26014E+03
 4.000E+00 1.44309E+03
 4.200E+00 1.65778E+03
 4.400E+00 1.86084E+03
 4.600E+00 2.02215E+03
 4.800E+00 2.12479E+03
 5.000E+00 2.18233E+03
 5.500E+00 2.22704E+03
 6.000E+00 2.22662E+03
 6.500E+00 2.22785E+03
 7.000E+00 2.24325E+03
 7.500E+00 2.26921E+03
 8.000E+00 2.19374E+03
 8.500E+00 1.98378E+03
 9.000E+00 1.69664E+03
 9.500E+00 1.38911E+03
 1.000E+01 1.10148E+03
 1.100E+01 6.92869E+02
 1.200E+01 4.83563E+02
 1.300E+01 3.88679E+02
 1.400E+01 3.41745E+02
 1.500E+01 3.15335E+02
 1.600E+01 2.96491E+02
 1.700E+01 2.84743E+02
 1.800E+01 2.70290E+02
 1.900E+01 2.58081E+02
 2.000E+01 2.47058E+02
 2.100E+01 2.36273E+02
 2.200E+01 2.26236E+02
 2.300E+01 2.17049E+02
 2.400E+01 2.06738E+02
 2.500E+01 1.97734E+02
 2.600E+01 1.88325E+02
 2.700E+01 1.81300E+02
 2.800E+01 1.75526E+02
 2.900E+01 1.68434E+02
 3.000E+01 1.62287E+02
