# n + 208Pb: Gamma-ray intensity - 209Pb: Level  4 --> Level  3 - gamma energy    0.465130
# E-initial  =   2.032220 E-final=   1.567090
# E-threshold= 0.00000E+00
# # energies =    67
#    E           xs
 1.00000E-11 0.00000E+00
 2.53000E-08 0.00000E+00
 2.00000E-07 0.00000E+00
 1.00000E-06 2.14876E+02
 1.00000E-03 7.11978E-01
 2.00000E-03 4.16270E-01
 5.00000E-03 2.19746E-01
 1.00000E-02 1.29018E-01
 2.00000E-02 7.13634E-02
 5.00000E-02 3.24492E-02
 1.00000E-01 1.87222E-02
 2.00000E-01 1.18357E-02
 3.00000E-01 9.78212E-03
 4.00000E-01 9.01051E-03
 5.00000E-01 8.79340E-03
 7.50000E-01 9.37207E-03
 1.00000E+00 1.08879E-02
 1.20000E+00 1.26169E-02
 1.40000E+00 1.47453E-02
 1.60000E+00 1.74346E-02
 1.80000E+00 2.06639E-02
 2.00000E+00 2.44953E-02
 2.20000E+00 2.93338E-02
 2.40000E+00 3.50491E-02
 2.60000E+00 4.13098E-02
 2.80000E+00 4.05798E-02
 3.00000E+00 4.15404E-02
 3.20000E+00 4.49924E-02
 3.40000E+00 4.77900E-02
 3.60000E+00 5.19989E-02
 3.80000E+00 5.42371E-02
 4.00000E+00 5.80209E-02
 4.20000E+00 5.54346E-02
 4.40000E+00 4.48290E-02
 4.60000E+00 3.90510E-02
 4.80000E+00 4.04682E-02
 5.00000E+00 3.74287E-02
 5.50000E+00 3.10290E-02
 6.00000E+00 2.84864E-02
 6.50000E+00 3.05691E-02
 7.00000E+00 3.74454E-02
 7.50000E+00 5.03414E-02
 8.00000E+00 7.47531E-02
 8.50000E+00 1.17025E-01
 9.00000E+00 1.83600E-01
 9.50000E+00 2.70763E-01
 1.00000E+01 3.41147E-01
 1.10000E+01 3.13006E-01
 1.20000E+01 2.09901E-01
 1.30000E+01 1.43484E-01
 1.40000E+01 1.08473E-01
 1.50000E+01 8.71697E-02
 1.60000E+01 7.41114E-02
 1.70000E+01 6.88905E-02
 1.80000E+01 6.31878E-02
 1.90000E+01 6.01457E-02
 2.00000E+01 5.60127E-02
 2.10000E+01 5.08861E-02
 2.20000E+01 4.60846E-02
 2.30000E+01 4.38497E-02
 2.40000E+01 3.99020E-02
 2.50000E+01 3.80269E-02
 2.60000E+01 3.56382E-02
 2.70000E+01 3.43168E-02
 2.80000E+01 3.28182E-02
 2.90000E+01 3.13686E-02
 3.00000E+01 3.04971E-02
