# n + 208Pb: Gamma-ray intensity - 209Pb: Level  4 --> Level  3 - gamma energy    0.465130
# E-initial  =   2.032220 E-final=   1.567090
# E-threshold= 0.00000E+00
# # energies = 67
#    E         xs
 1.000E-11 0.00000E+00
 2.530E-08 0.00000E+00
 2.000E-07 0.00000E+00
 1.000E-06 2.00614E+02
 1.000E-03 6.86058E-01
 2.000E-03 4.02426E-01
 5.000E-03 2.11049E-01
 1.000E-02 1.22990E-01
 2.000E-02 6.77205E-02
 5.000E-02 3.09539E-02
 1.000E-01 1.80236E-02
 2.000E-01 1.15365E-02
 3.000E-01 9.63717E-03
 4.000E-01 8.96736E-03
 5.000E-01 8.82954E-03
 7.500E-01 9.64070E-03
 1.000E+00 1.13816E-02
 1.200E+00 1.33138E-02
 1.400E+00 1.59232E-02
 1.600E+00 1.87623E-02
 1.800E+00 2.24921E-02
 2.000E+00 2.69382E-02
 2.200E+00 3.21581E-02
 2.400E+00 3.82788E-02
 2.600E+00 4.70093E-02
 2.800E+00 4.48492E-02
 3.000E+00 4.59595E-02
 3.200E+00 5.04802E-02
 3.400E+00 5.34125E-02
 3.600E+00 5.88886E-02
 3.800E+00 6.10415E-02
 4.000E+00 6.61512E-02
 4.200E+00 6.36931E-02
 4.400E+00 5.11188E-02
 4.600E+00 4.26882E-02
 4.800E+00 3.76606E-02
 5.000E+00 3.28460E-02
 5.500E+00 2.91942E-02
 6.000E+00 2.75589E-02
 6.500E+00 3.08621E-02
 7.000E+00 3.70258E-02
 7.500E+00 5.08955E-02
 8.000E+00 7.45533E-02
 8.500E+00 1.15130E-01
 9.000E+00 1.81230E-01
 9.500E+00 2.66811E-01
 1.000E+01 3.31627E-01
 1.100E+01 3.03144E-01
 1.200E+01 2.05247E-01
 1.300E+01 1.32116E-01
 1.400E+01 1.01118E-01
 1.500E+01 8.24582E-02
 1.600E+01 7.03498E-02
 1.700E+01 6.18054E-02
 1.800E+01 5.27117E-02
 1.900E+01 4.91006E-02
 2.000E+01 4.60395E-02
 2.100E+01 4.29565E-02
 2.200E+01 4.02909E-02
 2.300E+01 3.88225E-02
 2.400E+01 3.75095E-02
 2.500E+01 3.62892E-02
 2.600E+01 3.53729E-02
 2.700E+01 3.30019E-02
 2.800E+01 3.13917E-02
 2.900E+01 3.08114E-02
 3.000E+01 3.04377E-02
