# n + 208Pb: Gamma-ray intensity - 207Pb: Level 10 --> Level  3 - gamma energy    1.568630
# E-initial  =   3.202000 E-final=   1.633370
# E-threshold= 4.21753E+00
# # energies = 66
#    E         xs
 1.000E-11 0.00000E+00
 2.530E-08 0.00000E+00
 1.000E-06 0.00000E+00
 1.000E-03 0.00000E+00
 2.000E-03 0.00000E+00
 5.000E-03 0.00000E+00
 1.000E-02 0.00000E+00
 2.000E-02 0.00000E+00
 5.000E-02 0.00000E+00
 1.000E-01 0.00000E+00
 2.000E-01 0.00000E+00
 3.000E-01 0.00000E+00
 4.000E-01 0.00000E+00
 5.000E-01 0.00000E+00
 7.500E-01 0.00000E+00
 1.000E+00 0.00000E+00
 1.200E+00 0.00000E+00
 1.400E+00 0.00000E+00
 1.600E+00 0.00000E+00
 1.800E+00 0.00000E+00
 2.000E+00 0.00000E+00
 2.200E+00 0.00000E+00
 2.400E+00 0.00000E+00
 2.600E+00 0.00000E+00
 2.800E+00 0.00000E+00
 3.000E+00 0.00000E+00
 3.200E+00 0.00000E+00
 3.400E+00 0.00000E+00
 3.600E+00 0.00000E+00
 3.800E+00 0.00000E+00
 4.000E+00 0.00000E+00
 4.200E+00 0.00000E+00
 4.400E+00 0.00000E+00
 4.600E+00 0.00000E+00
 4.800E+00 0.00000E+00
 5.000E+00 0.00000E+00
 5.500E+00 0.00000E+00
 6.000E+00 0.00000E+00
 6.500E+00 0.00000E+00
 7.000E+00 0.00000E+00
 7.500E+00 0.00000E+00
 8.000E+00 0.00000E+00
 8.500E+00 0.00000E+00
 9.000E+00 0.00000E+00
 9.500E+00 0.00000E+00
 1.000E+01 0.00000E+00
 1.100E+01 2.78167E+00
 1.200E+01 3.79528E+01
 1.300E+01 9.00970E+01
 1.400E+01 1.39462E+02
 1.500E+01 1.76868E+02
 1.600E+01 2.05493E+02
 1.700E+01 2.20426E+02
 1.800E+01 2.13961E+02
 1.900E+01 1.83684E+02
 2.000E+01 1.45024E+02
 2.100E+01 1.11420E+02
 2.200E+01 8.87281E+01
 2.300E+01 7.43065E+01
 2.400E+01 6.64670E+01
 2.500E+01 6.18882E+01
 2.600E+01 5.87433E+01
 2.700E+01 5.64594E+01
 2.800E+01 5.41280E+01
 2.900E+01 4.96835E+01
 3.000E+01 4.87372E+01
