# n + 208Pb: Gamma-ray intensity - 208Pb: Level 20 --> Level  3 - gamma energy    0.754890
# E-initial  =   4.230000 E-final=   3.475110
# E-threshold= 4.25052E+00
# # energies = 67
#    E         xs
 1.000E-11 0.00000E+00
 2.530E-08 0.00000E+00
 2.000E-07 0.00000E+00
 1.000E-06 0.00000E+00
 1.000E-03 0.00000E+00
 2.000E-03 0.00000E+00
 5.000E-03 0.00000E+00
 1.000E-02 0.00000E+00
 2.000E-02 0.00000E+00
 5.000E-02 0.00000E+00
 1.000E-01 0.00000E+00
 2.000E-01 0.00000E+00
 3.000E-01 0.00000E+00
 4.000E-01 0.00000E+00
 5.000E-01 0.00000E+00
 7.500E-01 0.00000E+00
 1.000E+00 0.00000E+00
 1.200E+00 0.00000E+00
 1.400E+00 0.00000E+00
 1.600E+00 0.00000E+00
 1.800E+00 0.00000E+00
 2.000E+00 0.00000E+00
 2.200E+00 0.00000E+00
 2.400E+00 0.00000E+00
 2.600E+00 0.00000E+00
 2.800E+00 0.00000E+00
 3.000E+00 0.00000E+00
 3.200E+00 0.00000E+00
 3.400E+00 0.00000E+00
 3.600E+00 0.00000E+00
 3.800E+00 0.00000E+00
 4.000E+00 0.00000E+00
 4.200E+00 0.00000E+00
 4.400E+00 1.85197E+01
 4.600E+00 2.86131E+01
 4.800E+00 3.34489E+01
 5.000E+00 3.47547E+01
 5.500E+00 3.22107E+01
 6.000E+00 2.90114E+01
 6.500E+00 2.67039E+01
 7.000E+00 2.49920E+01
 7.500E+00 2.39600E+01
 8.000E+00 2.23248E+01
 8.500E+00 1.95414E+01
 9.000E+00 1.61281E+01
 9.500E+00 1.27764E+01
 1.000E+01 9.74840E+00
 1.100E+01 5.53647E+00
 1.200E+01 3.44217E+00
 1.300E+01 2.43427E+00
 1.400E+01 1.95753E+00
 1.500E+01 1.70979E+00
 1.600E+01 1.56254E+00
 1.700E+01 1.48759E+00
 1.800E+01 1.39575E+00
 1.900E+01 1.32603E+00
 2.000E+01 1.27119E+00
 2.100E+01 1.21760E+00
 2.200E+01 1.19180E+00
 2.300E+01 1.14137E+00
 2.400E+01 1.09176E+00
 2.500E+01 1.05921E+00
 2.600E+01 1.00616E+00
 2.700E+01 9.73740E-01
 2.800E+01 9.28307E-01
 2.900E+01 9.13397E-01
 3.000E+01 8.72796E-01
