# n + 208Pb: Gamma-ray intensity - 208Pb: Level 22 --> Level 12 - gamma energy    0.257938
# E-initial  =   4.383285 E-final=   4.125347
# E-threshold= 4.40454E+00
# # energies =    67
#    E           xs
 1.00000E-11 0.00000E+00
 2.53000E-08 0.00000E+00
 2.00000E-07 0.00000E+00
 1.00000E-06 0.00000E+00
 1.00000E-03 0.00000E+00
 2.00000E-03 0.00000E+00
 5.00000E-03 0.00000E+00
 1.00000E-02 0.00000E+00
 2.00000E-02 0.00000E+00
 5.00000E-02 0.00000E+00
 1.00000E-01 0.00000E+00
 2.00000E-01 0.00000E+00
 3.00000E-01 0.00000E+00
 4.00000E-01 0.00000E+00
 5.00000E-01 0.00000E+00
 7.50000E-01 0.00000E+00
 1.00000E+00 0.00000E+00
 1.20000E+00 0.00000E+00
 1.40000E+00 0.00000E+00
 1.60000E+00 0.00000E+00
 1.80000E+00 0.00000E+00
 2.00000E+00 0.00000E+00
 2.20000E+00 0.00000E+00
 2.40000E+00 0.00000E+00
 2.60000E+00 0.00000E+00
 2.80000E+00 0.00000E+00
 3.00000E+00 0.00000E+00
 3.20000E+00 0.00000E+00
 3.40000E+00 0.00000E+00
 3.60000E+00 0.00000E+00
 3.80000E+00 0.00000E+00
 4.00000E+00 0.00000E+00
 4.20000E+00 0.00000E+00
 4.40000E+00 0.00000E+00
 4.60000E+00 8.72445E-02
 4.80000E+00 1.35326E-01
 5.00000E+00 1.66065E-01
 5.50000E+00 1.91401E-01
 6.00000E+00 1.99504E-01
 6.50000E+00 2.11090E-01
 7.00000E+00 2.24893E-01
 7.50000E+00 2.41867E-01
 8.00000E+00 2.58249E-01
 8.50000E+00 2.62211E-01
 9.00000E+00 2.42559E-01
 9.50000E+00 2.06336E-01
 1.00000E+01 1.63660E-01
 1.10000E+01 9.18798E-02
 1.20000E+01 5.14413E-02
 1.30000E+01 3.33585E-02
 1.40000E+01 2.55167E-02
 1.50000E+01 2.20370E-02
 1.60000E+01 2.01267E-02
 1.70000E+01 1.90569E-02
 1.80000E+01 1.77180E-02
 1.90000E+01 1.65543E-02
 2.00000E+01 1.57779E-02
 2.10000E+01 1.49723E-02
 2.20000E+01 1.41186E-02
 2.30000E+01 1.34756E-02
 2.40000E+01 1.27155E-02
 2.50000E+01 1.18522E-02
 2.60000E+01 1.11919E-02
 2.70000E+01 1.05055E-02
 2.80000E+01 9.95105E-03
 2.90000E+01 9.54125E-03
 3.00000E+01 9.14466E-03
