# n + 208Pb: Gamma-ray intensity - 208Pb: Level 20 --> Level  5 - gamma energy    0.310200
# E-initial  =   4.230000 E-final=   3.919800
# E-threshold= 4.25052E+00
# # energies = 67
#    E         xs
 1.000E-11 0.00000E+00
 2.530E-08 0.00000E+00
 2.000E-07 0.00000E+00
 1.000E-06 0.00000E+00
 1.000E-03 0.00000E+00
 2.000E-03 0.00000E+00
 5.000E-03 0.00000E+00
 1.000E-02 0.00000E+00
 2.000E-02 0.00000E+00
 5.000E-02 0.00000E+00
 1.000E-01 0.00000E+00
 2.000E-01 0.00000E+00
 3.000E-01 0.00000E+00
 4.000E-01 0.00000E+00
 5.000E-01 0.00000E+00
 7.500E-01 0.00000E+00
 1.000E+00 0.00000E+00
 1.200E+00 0.00000E+00
 1.400E+00 0.00000E+00
 1.600E+00 0.00000E+00
 1.800E+00 0.00000E+00
 2.000E+00 0.00000E+00
 2.200E+00 0.00000E+00
 2.400E+00 0.00000E+00
 2.600E+00 0.00000E+00
 2.800E+00 0.00000E+00
 3.000E+00 0.00000E+00
 3.200E+00 0.00000E+00
 3.400E+00 0.00000E+00
 3.600E+00 0.00000E+00
 3.800E+00 0.00000E+00
 4.000E+00 0.00000E+00
 4.200E+00 0.00000E+00
 4.400E+00 1.85197E+01
 4.600E+00 2.86131E+01
 4.800E+00 3.34512E+01
 5.000E+00 3.47619E+01
 5.500E+00 3.22376E+01
 6.000E+00 2.90460E+01
 6.500E+00 2.67443E+01
 7.000E+00 2.50367E+01
 7.500E+00 2.40071E+01
 8.000E+00 2.23696E+01
 8.500E+00 1.95768E+01
 9.000E+00 1.61517E+01
 9.500E+00 1.27891E+01
 1.000E+01 9.74894E+00
 1.100E+01 5.52043E+00
 1.200E+01 3.41875E+00
 1.300E+01 2.40769E+00
 1.400E+01 1.92983E+00
 1.500E+01 1.68184E+00
 1.600E+01 1.53559E+00
 1.700E+01 1.46115E+00
 1.800E+01 1.36995E+00
 1.900E+01 1.30070E+00
 2.000E+01 1.24670E+00
 2.100E+01 1.19454E+00
 2.200E+01 1.16857E+00
 2.300E+01 1.11853E+00
 2.400E+01 1.06955E+00
 2.500E+01 1.03732E+00
 2.600E+01 9.86651E-01
 2.700E+01 9.53966E-01
 2.800E+01 9.08092E-01
 2.900E+01 8.92937E-01
 3.000E+01 8.52433E-01
