# n + 208Pb: Gamma-ray intensity - 208Pb: Level 28 --> Level 11 - gamma energy    0.612800
# E-initial  =   4.698320 E-final=   4.085520
# E-threshold= 4.72111E+00
# # energies = 67
#    E         xs
 1.000E-11 0.00000E+00
 2.530E-08 0.00000E+00
 2.000E-07 0.00000E+00
 1.000E-06 0.00000E+00
 1.000E-03 0.00000E+00
 2.000E-03 0.00000E+00
 5.000E-03 0.00000E+00
 1.000E-02 0.00000E+00
 2.000E-02 0.00000E+00
 5.000E-02 0.00000E+00
 1.000E-01 0.00000E+00
 2.000E-01 0.00000E+00
 3.000E-01 0.00000E+00
 4.000E-01 0.00000E+00
 5.000E-01 0.00000E+00
 7.500E-01 0.00000E+00
 1.000E+00 0.00000E+00
 1.200E+00 0.00000E+00
 1.400E+00 0.00000E+00
 1.600E+00 0.00000E+00
 1.800E+00 0.00000E+00
 2.000E+00 0.00000E+00
 2.200E+00 0.00000E+00
 2.400E+00 0.00000E+00
 2.600E+00 0.00000E+00
 2.800E+00 0.00000E+00
 3.000E+00 0.00000E+00
 3.200E+00 0.00000E+00
 3.400E+00 0.00000E+00
 3.600E+00 0.00000E+00
 3.800E+00 0.00000E+00
 4.000E+00 0.00000E+00
 4.200E+00 0.00000E+00
 4.400E+00 0.00000E+00
 4.600E+00 0.00000E+00
 4.800E+00 1.04548E-01
 5.000E+00 2.18768E-01
 5.500E+00 3.06629E-01
 6.000E+00 2.75122E-01
 6.500E+00 2.44703E-01
 7.000E+00 2.20887E-01
 7.500E+00 1.99609E-01
 8.000E+00 1.70817E-01
 8.500E+00 1.36427E-01
 9.000E+00 1.05610E-01
 9.500E+00 7.81367E-02
 1.000E+01 5.65094E-02
 1.100E+01 2.96817E-02
 1.200E+01 1.74134E-02
 1.300E+01 1.17581E-02
 1.400E+01 9.37315E-03
 1.500E+01 8.13914E-03
 1.600E+01 7.45740E-03
 1.700E+01 7.16004E-03
 1.800E+01 6.73092E-03
 1.900E+01 6.33769E-03
 2.000E+01 6.17951E-03
 2.100E+01 5.98213E-03
 2.200E+01 5.68065E-03
 2.300E+01 5.53413E-03
 2.400E+01 5.32319E-03
 2.500E+01 5.05645E-03
 2.600E+01 4.89450E-03
 2.700E+01 4.79334E-03
 2.800E+01 4.67668E-03
 2.900E+01 4.51483E-03
 3.000E+01 4.40942E-03
