# n + 208Pb: Gamma-ray intensity - 208Pb: Level 10 --> Level  1 - gamma energy    1.436612
# E-initial  =   4.051134 E-final=   2.614522
# E-threshold= 4.07078E+00
# # energies =    67
#    E           xs
 1.00000E-11 0.00000E+00
 2.53000E-08 0.00000E+00
 2.00000E-07 0.00000E+00
 1.00000E-06 0.00000E+00
 1.00000E-03 0.00000E+00
 2.00000E-03 0.00000E+00
 5.00000E-03 0.00000E+00
 1.00000E-02 0.00000E+00
 2.00000E-02 0.00000E+00
 5.00000E-02 0.00000E+00
 1.00000E-01 0.00000E+00
 2.00000E-01 0.00000E+00
 3.00000E-01 0.00000E+00
 4.00000E-01 0.00000E+00
 5.00000E-01 0.00000E+00
 7.50000E-01 0.00000E+00
 1.00000E+00 0.00000E+00
 1.20000E+00 0.00000E+00
 1.40000E+00 0.00000E+00
 1.60000E+00 0.00000E+00
 1.80000E+00 0.00000E+00
 2.00000E+00 0.00000E+00
 2.20000E+00 0.00000E+00
 2.40000E+00 0.00000E+00
 2.60000E+00 0.00000E+00
 2.80000E+00 0.00000E+00
 3.00000E+00 0.00000E+00
 3.20000E+00 0.00000E+00
 3.40000E+00 0.00000E+00
 3.60000E+00 0.00000E+00
 3.80000E+00 0.00000E+00
 4.00000E+00 0.00000E+00
 4.20000E+00 5.12001E+01
 4.40000E+00 8.08814E+01
 4.60000E+00 9.25492E+01
 4.80000E+00 9.51323E+01
 5.00000E+00 9.21485E+01
 5.50000E+00 8.02056E+01
 6.00000E+00 7.15229E+01
 6.50000E+00 6.54560E+01
 7.00000E+00 6.12515E+01
 7.50000E+00 5.82526E+01
 8.00000E+00 5.13388E+01
 8.50000E+00 4.11609E+01
 9.00000E+00 3.16888E+01
 9.50000E+00 2.31360E+01
 1.00000E+01 1.67001E+01
 1.10000E+01 8.91584E+00
 1.20000E+01 5.59325E+00
 1.30000E+01 4.13877E+00
 1.40000E+01 3.51832E+00
 1.50000E+01 3.16014E+00
 1.60000E+01 2.89121E+00
 1.70000E+01 2.76089E+00
 1.80000E+01 2.56370E+00
 1.90000E+01 2.41111E+00
 2.00000E+01 2.29655E+00
 2.10000E+01 2.20479E+00
 2.20000E+01 2.06596E+00
 2.30000E+01 1.98187E+00
 2.40000E+01 1.89576E+00
 2.50000E+01 1.76448E+00
 2.60000E+01 1.69133E+00
 2.70000E+01 1.64203E+00
 2.80000E+01 1.58589E+00
 2.90000E+01 1.51832E+00
 3.00000E+01 1.46831E+00
