# n + 208Pb: Gamma-ray intensity - 208Pb: Level 17 --> Level  2 - gamma energy    0.982670
# E-initial  =   4.180410 E-final=   3.197740
# E-threshold= 4.20068E+00
# # energies = 66
#    E         xs
 1.000E-11 0.00000E+00
 2.530E-08 0.00000E+00
 1.000E-06 0.00000E+00
 1.000E-03 0.00000E+00
 2.000E-03 0.00000E+00
 5.000E-03 0.00000E+00
 1.000E-02 0.00000E+00
 2.000E-02 0.00000E+00
 5.000E-02 0.00000E+00
 1.000E-01 0.00000E+00
 2.000E-01 0.00000E+00
 3.000E-01 0.00000E+00
 4.000E-01 0.00000E+00
 5.000E-01 0.00000E+00
 7.500E-01 0.00000E+00
 1.000E+00 0.00000E+00
 1.200E+00 0.00000E+00
 1.400E+00 0.00000E+00
 1.600E+00 0.00000E+00
 1.800E+00 0.00000E+00
 2.000E+00 0.00000E+00
 2.200E+00 0.00000E+00
 2.400E+00 0.00000E+00
 2.600E+00 0.00000E+00
 2.800E+00 0.00000E+00
 3.000E+00 0.00000E+00
 3.200E+00 0.00000E+00
 3.400E+00 0.00000E+00
 3.600E+00 0.00000E+00
 3.800E+00 0.00000E+00
 4.000E+00 0.00000E+00
 4.200E+00 0.00000E+00
 4.400E+00 3.20345E+01
 4.600E+00 4.42392E+01
 4.800E+00 4.91430E+01
 5.000E+00 4.95941E+01
 5.500E+00 4.46437E+01
 6.000E+00 4.04556E+01
 6.500E+00 3.83418E+01
 7.000E+00 3.77026E+01
 7.500E+00 3.82728E+01
 8.000E+00 3.83019E+01
 8.500E+00 3.56626E+01
 9.000E+00 3.04156E+01
 9.500E+00 2.44379E+01
 1.000E+01 1.88636E+01
 1.100E+01 1.08991E+01
 1.200E+01 7.03021E+00
 1.300E+01 5.35209E+00
 1.400E+01 4.59292E+00
 1.500E+01 4.20552E+00
 1.600E+01 3.95054E+00
 1.700E+01 3.78725E+00
 1.800E+01 3.60223E+00
 1.900E+01 3.44262E+00
 2.000E+01 3.30393E+00
 2.100E+01 3.18049E+00
 2.200E+01 3.04665E+00
 2.300E+01 2.93430E+00
 2.400E+01 2.79799E+00
 2.500E+01 2.68915E+00
 2.600E+01 2.58306E+00
 2.700E+01 2.48620E+00
 2.800E+01 2.40070E+00
 2.900E+01 2.31079E+00
 3.000E+01 2.22433E+00
