# n + 208Pb: Gamma-ray intensity - 208Pb: Level 15 --> Level  4 - gamma energy    0.497826
# E-initial  =   4.206277 E-final=   3.708451
# E-threshold= 4.22668E+00
# # energies =    67
#    E           xs
 1.00000E-11 0.00000E+00
 2.53000E-08 0.00000E+00
 2.00000E-07 0.00000E+00
 1.00000E-06 0.00000E+00
 1.00000E-03 0.00000E+00
 2.00000E-03 0.00000E+00
 5.00000E-03 0.00000E+00
 1.00000E-02 0.00000E+00
 2.00000E-02 0.00000E+00
 5.00000E-02 0.00000E+00
 1.00000E-01 0.00000E+00
 2.00000E-01 0.00000E+00
 3.00000E-01 0.00000E+00
 4.00000E-01 0.00000E+00
 5.00000E-01 0.00000E+00
 7.50000E-01 0.00000E+00
 1.00000E+00 0.00000E+00
 1.20000E+00 0.00000E+00
 1.40000E+00 0.00000E+00
 1.60000E+00 0.00000E+00
 1.80000E+00 0.00000E+00
 2.00000E+00 0.00000E+00
 2.20000E+00 0.00000E+00
 2.40000E+00 0.00000E+00
 2.60000E+00 0.00000E+00
 2.80000E+00 0.00000E+00
 3.00000E+00 0.00000E+00
 3.20000E+00 0.00000E+00
 3.40000E+00 0.00000E+00
 3.60000E+00 0.00000E+00
 3.80000E+00 0.00000E+00
 4.00000E+00 0.00000E+00
 4.20000E+00 0.00000E+00
 4.40000E+00 3.03392E+00
 4.60000E+00 4.53208E+00
 4.80000E+00 5.58743E+00
 5.00000E+00 6.27248E+00
 5.50000E+00 7.10207E+00
 6.00000E+00 7.68873E+00
 6.50000E+00 8.39508E+00
 7.00000E+00 9.22863E+00
 7.50000E+00 1.01842E+01
 8.00000E+00 1.10698E+01
 8.50000E+00 1.14142E+01
 9.00000E+00 1.07366E+01
 9.50000E+00 9.28352E+00
 1.00000E+01 7.47611E+00
 1.10000E+01 4.31602E+00
 1.20000E+01 2.46370E+00
 1.30000E+01 1.61981E+00
 1.40000E+01 1.25236E+00
 1.50000E+01 1.08708E+00
 1.60000E+01 9.96502E-01
 1.70000E+01 9.44867E-01
 1.80000E+01 8.80443E-01
 1.90000E+01 8.24320E-01
 2.00000E+01 7.87683E-01
 2.10000E+01 7.47590E-01
 2.20000E+01 7.06072E-01
 2.30000E+01 6.74035E-01
 2.40000E+01 6.37140E-01
 2.50000E+01 5.92446E-01
 2.60000E+01 5.60391E-01
 2.70000E+01 5.25958E-01
 2.80000E+01 4.98730E-01
 2.90000E+01 4.78051E-01
 3.00000E+01 4.58207E-01
