# n + 208Pb: Gamma-ray intensity - 207Pb: Level  4 --> Level  2 - gamma energy    1.442150
# E-initial  =   2.339950 E-final=   0.897800
# E-threshold= 9.75490E+00
# # energies = 67
#    E         xs
 1.000E-11 0.00000E+00
 2.530E-08 0.00000E+00
 2.000E-07 0.00000E+00
 1.000E-06 0.00000E+00
 1.000E-03 0.00000E+00
 2.000E-03 0.00000E+00
 5.000E-03 0.00000E+00
 1.000E-02 0.00000E+00
 2.000E-02 0.00000E+00
 5.000E-02 0.00000E+00
 1.000E-01 0.00000E+00
 2.000E-01 0.00000E+00
 3.000E-01 0.00000E+00
 4.000E-01 0.00000E+00
 5.000E-01 0.00000E+00
 7.500E-01 0.00000E+00
 1.000E+00 0.00000E+00
 1.200E+00 0.00000E+00
 1.400E+00 0.00000E+00
 1.600E+00 0.00000E+00
 1.800E+00 0.00000E+00
 2.000E+00 0.00000E+00
 2.200E+00 0.00000E+00
 2.400E+00 0.00000E+00
 2.600E+00 0.00000E+00
 2.800E+00 0.00000E+00
 3.000E+00 0.00000E+00
 3.200E+00 0.00000E+00
 3.400E+00 0.00000E+00
 3.600E+00 0.00000E+00
 3.800E+00 0.00000E+00
 4.000E+00 0.00000E+00
 4.200E+00 0.00000E+00
 4.400E+00 0.00000E+00
 4.600E+00 0.00000E+00
 4.800E+00 0.00000E+00
 5.000E+00 0.00000E+00
 5.500E+00 0.00000E+00
 6.000E+00 0.00000E+00
 6.500E+00 0.00000E+00
 7.000E+00 0.00000E+00
 7.500E+00 0.00000E+00
 8.000E+00 0.00000E+00
 8.500E+00 0.00000E+00
 9.000E+00 0.00000E+00
 9.500E+00 0.00000E+00
 1.000E+01 2.34402E-02
 1.100E+01 8.13223E-01
 1.200E+01 2.21975E+00
 1.300E+01 3.46120E+00
 1.400E+01 4.12083E+00
 1.500E+01 4.32618E+00
 1.600E+01 4.17261E+00
 1.700E+01 3.66214E+00
 1.800E+01 2.96332E+00
 1.900E+01 2.28146E+00
 2.000E+01 1.74548E+00
 2.100E+01 1.35702E+00
 2.200E+01 1.10099E+00
 2.300E+01 9.38561E-01
 2.400E+01 8.31440E-01
 2.500E+01 7.60575E-01
 2.600E+01 7.08065E-01
 2.700E+01 6.66972E-01
 2.800E+01 6.35398E-01
 2.900E+01 6.02350E-01
 3.000E+01 5.79150E-01
