# n + 208Pb: Gamma-ray intensity - 209Pb: Level  3 --> Level  0 - gamma energy    1.567090
# E-initial  =   1.567090 E-final=   0.000000
# E-threshold= 0.00000E+00
# # energies = 67
#    E         xs
 1.000E-11 0.00000E+00
 2.530E-08 0.00000E+00
 2.000E-07 0.00000E+00
 1.000E-06 2.19175E+02
 1.000E-03 1.19956E+00
 2.000E-03 7.15636E-01
 5.000E-03 3.84126E-01
 1.000E-02 2.26371E-01
 2.000E-02 1.25352E-01
 5.000E-02 6.75386E-02
 1.000E-01 4.58077E-02
 2.000E-01 3.30590E-02
 3.000E-01 2.88621E-02
 4.000E-01 2.73122E-02
 5.000E-01 2.70949E-02
 7.500E-01 2.97189E-02
 1.000E+00 3.51521E-02
 1.200E+00 4.12145E-02
 1.400E+00 4.93232E-02
 1.600E+00 5.84326E-02
 1.800E+00 7.01764E-02
 2.000E+00 8.42847E-02
 2.200E+00 1.00942E-01
 2.400E+00 1.20683E-01
 2.600E+00 1.47629E-01
 2.800E+00 1.25894E-01
 3.000E+00 1.26566E-01
 3.200E+00 1.37529E-01
 3.400E+00 1.42814E-01
 3.600E+00 1.52651E-01
 3.800E+00 1.56722E-01
 4.000E+00 1.66230E-01
 4.200E+00 1.54487E-01
 4.400E+00 1.52602E-01
 4.600E+00 1.34561E-01
 4.800E+00 1.23242E-01
 5.000E+00 1.14221E-01
 5.500E+00 1.09293E-01
 6.000E+00 1.09852E-01
 6.500E+00 1.22322E-01
 7.000E+00 1.41966E-01
 7.500E+00 1.77988E-01
 8.000E+00 2.29348E-01
 8.500E+00 2.95262E-01
 9.000E+00 3.73408E-01
 9.500E+00 4.44365E-01
 1.000E+01 4.80842E-01
 1.100E+01 4.54762E-01
 1.200E+01 3.66417E-01
 1.300E+01 2.73591E-01
 1.400E+01 2.21006E-01
 1.500E+01 1.86083E-01
 1.600E+01 1.62266E-01
 1.700E+01 1.45125E-01
 1.800E+01 1.25922E-01
 1.900E+01 1.15945E-01
 2.000E+01 1.08335E-01
 2.100E+01 1.02918E-01
 2.200E+01 9.82278E-02
 2.300E+01 9.46321E-02
 2.400E+01 9.10660E-02
 2.500E+01 8.70525E-02
 2.600E+01 8.38079E-02
 2.700E+01 7.84905E-02
 2.800E+01 7.21367E-02
 2.900E+01 6.93482E-02
 3.000E+01 6.62751E-02
