# n + 208Pb: Gamma-ray intensity - 208Pb: Level  7 --> Level  4 - gamma energy    0.252710
# E-initial  =   3.961160 E-final=   3.708450
# E-threshold= 3.98037E+00
# # energies = 67
#    E         xs
 1.000E-11 0.00000E+00
 2.530E-08 0.00000E+00
 2.000E-07 0.00000E+00
 1.000E-06 0.00000E+00
 1.000E-03 0.00000E+00
 2.000E-03 0.00000E+00
 5.000E-03 0.00000E+00
 1.000E-02 0.00000E+00
 2.000E-02 0.00000E+00
 5.000E-02 0.00000E+00
 1.000E-01 0.00000E+00
 2.000E-01 0.00000E+00
 3.000E-01 0.00000E+00
 4.000E-01 0.00000E+00
 5.000E-01 0.00000E+00
 7.500E-01 0.00000E+00
 1.000E+00 0.00000E+00
 1.200E+00 0.00000E+00
 1.400E+00 0.00000E+00
 1.600E+00 0.00000E+00
 1.800E+00 0.00000E+00
 2.000E+00 0.00000E+00
 2.200E+00 0.00000E+00
 2.400E+00 0.00000E+00
 2.600E+00 0.00000E+00
 2.800E+00 0.00000E+00
 3.000E+00 0.00000E+00
 3.200E+00 0.00000E+00
 3.400E+00 0.00000E+00
 3.600E+00 0.00000E+00
 3.800E+00 0.00000E+00
 4.000E+00 3.94177E+00
 4.200E+00 1.36209E+01
 4.400E+00 1.83408E+01
 4.600E+00 2.10103E+01
 4.800E+00 2.26580E+01
 5.000E+00 2.36219E+01
 5.500E+00 2.42317E+01
 6.000E+00 2.39733E+01
 6.500E+00 2.34981E+01
 7.000E+00 2.32397E+01
 7.500E+00 2.33297E+01
 8.000E+00 2.29507E+01
 8.500E+00 2.12967E+01
 9.000E+00 1.85017E+01
 9.500E+00 1.52597E+01
 1.000E+01 1.21492E+01
 1.100E+01 7.42770E+00
 1.200E+01 4.93263E+00
 1.300E+01 3.74307E+00
 1.400E+01 3.17726E+00
 1.500E+01 2.86549E+00
 1.600E+01 2.65512E+00
 1.700E+01 2.50744E+00
 1.800E+01 2.36399E+00
 1.900E+01 2.24295E+00
 2.000E+01 2.14097E+00
 2.100E+01 2.04358E+00
 2.200E+01 1.94839E+00
 2.300E+01 1.86179E+00
 2.400E+01 1.77809E+00
 2.500E+01 1.68541E+00
 2.600E+01 1.60236E+00
 2.700E+01 1.54495E+00
 2.800E+01 1.49264E+00
 2.900E+01 1.44458E+00
 3.000E+01 1.39686E+00
