# n + 208Pb: Gamma-ray intensity - 207Pb: Level  5 --> Level  2 - gamma energy    1.725700
# E-initial  =   2.623500 E-final=   0.897800
# E-threshold= 3.63622E+00
# # energies = 66
#    E         xs
 1.000E-11 0.00000E+00
 2.530E-08 0.00000E+00
 1.000E-06 0.00000E+00
 1.000E-03 0.00000E+00
 2.000E-03 0.00000E+00
 5.000E-03 0.00000E+00
 1.000E-02 0.00000E+00
 2.000E-02 0.00000E+00
 5.000E-02 0.00000E+00
 1.000E-01 0.00000E+00
 2.000E-01 0.00000E+00
 3.000E-01 0.00000E+00
 4.000E-01 0.00000E+00
 5.000E-01 0.00000E+00
 7.500E-01 0.00000E+00
 1.000E+00 0.00000E+00
 1.200E+00 0.00000E+00
 1.400E+00 0.00000E+00
 1.600E+00 0.00000E+00
 1.800E+00 0.00000E+00
 2.000E+00 0.00000E+00
 2.200E+00 0.00000E+00
 2.400E+00 0.00000E+00
 2.600E+00 0.00000E+00
 2.800E+00 0.00000E+00
 3.000E+00 0.00000E+00
 3.200E+00 0.00000E+00
 3.400E+00 0.00000E+00
 3.600E+00 0.00000E+00
 3.800E+00 0.00000E+00
 4.000E+00 0.00000E+00
 4.200E+00 0.00000E+00
 4.400E+00 0.00000E+00
 4.600E+00 0.00000E+00
 4.800E+00 0.00000E+00
 5.000E+00 0.00000E+00
 5.500E+00 0.00000E+00
 6.000E+00 0.00000E+00
 6.500E+00 0.00000E+00
 7.000E+00 0.00000E+00
 7.500E+00 0.00000E+00
 8.000E+00 0.00000E+00
 8.500E+00 0.00000E+00
 9.000E+00 0.00000E+00
 9.500E+00 0.00000E+00
 1.000E+01 0.00000E+00
 1.100E+01 1.21501E+01
 1.200E+01 3.97485E+01
 1.300E+01 5.89649E+01
 1.400E+01 6.26407E+01
 1.500E+01 5.83303E+01
 1.600E+01 4.97077E+01
 1.700E+01 3.92845E+01
 1.800E+01 2.93961E+01
 1.900E+01 2.19825E+01
 2.000E+01 1.69309E+01
 2.100E+01 1.35542E+01
 2.200E+01 1.14406E+01
 2.300E+01 1.00951E+01
 2.400E+01 9.14149E+00
 2.500E+01 8.52540E+00
 2.600E+01 8.00806E+00
 2.700E+01 7.58222E+00
 2.800E+01 7.21195E+00
 2.900E+01 7.23046E+00
 3.000E+01 6.94678E+00
