# n + 208Pb: Gamma-ray intensity - 208Pb: Level 29 --> Level  8 - gamma energy    0.713290
# E-initial  =   4.708730 E-final=   3.995440
# E-threshold= 4.73157E+00
# # energies = 67
#    E         xs
 1.000E-11 0.00000E+00
 2.530E-08 0.00000E+00
 2.000E-07 0.00000E+00
 1.000E-06 0.00000E+00
 1.000E-03 0.00000E+00
 2.000E-03 0.00000E+00
 5.000E-03 0.00000E+00
 1.000E-02 0.00000E+00
 2.000E-02 0.00000E+00
 5.000E-02 0.00000E+00
 1.000E-01 0.00000E+00
 2.000E-01 0.00000E+00
 3.000E-01 0.00000E+00
 4.000E-01 0.00000E+00
 5.000E-01 0.00000E+00
 7.500E-01 0.00000E+00
 1.000E+00 0.00000E+00
 1.200E+00 0.00000E+00
 1.400E+00 0.00000E+00
 1.600E+00 0.00000E+00
 1.800E+00 0.00000E+00
 2.000E+00 0.00000E+00
 2.200E+00 0.00000E+00
 2.400E+00 0.00000E+00
 2.600E+00 0.00000E+00
 2.800E+00 0.00000E+00
 3.000E+00 0.00000E+00
 3.200E+00 0.00000E+00
 3.400E+00 0.00000E+00
 3.600E+00 0.00000E+00
 3.800E+00 0.00000E+00
 4.000E+00 0.00000E+00
 4.200E+00 0.00000E+00
 4.400E+00 0.00000E+00
 4.600E+00 0.00000E+00
 4.800E+00 4.46503E-01
 5.000E+00 1.06937E+00
 5.500E+00 1.71820E+00
 6.000E+00 1.73134E+00
 6.500E+00 1.69499E+00
 7.000E+00 1.67906E+00
 7.500E+00 1.66185E+00
 8.000E+00 1.62420E+00
 8.500E+00 1.53279E+00
 9.000E+00 1.38502E+00
 9.500E+00 1.21649E+00
 1.000E+01 1.05138E+00
 1.100E+01 7.91984E-01
 1.200E+01 6.46761E-01
 1.300E+01 5.72595E-01
 1.400E+01 5.30817E-01
 1.500E+01 4.99905E-01
 1.600E+01 4.74208E-01
 1.700E+01 4.52941E-01
 1.800E+01 4.35062E-01
 1.900E+01 4.19963E-01
 2.000E+01 4.06872E-01
 2.100E+01 3.93173E-01
 2.200E+01 3.79221E-01
 2.300E+01 3.65347E-01
 2.400E+01 3.51910E-01
 2.500E+01 3.39952E-01
 2.600E+01 3.29191E-01
 2.700E+01 3.20038E-01
 2.800E+01 3.11284E-01
 2.900E+01 3.02907E-01
 3.000E+01 2.94459E-01
