# n + 208Pb: Gamma-ray intensity - 209Pb: Level  2 --> Level  1 - gamma energy    0.644200
# E-initial  =   1.423000 E-final=   0.778800
# E-threshold= 0.00000E+00
# # energies = 67
#    E         xs
 1.000E-11 0.00000E+00
 2.530E-08 0.00000E+00
 2.000E-07 0.00000E+00
 1.000E-06 0.00000E+00
 1.000E-03 0.00000E+00
 2.000E-03 1.50487E-12
 5.000E-03 4.66197E-12
 1.000E-02 4.26728E-12
 2.000E-02 1.66836E-12
 5.000E-02 7.29940E-10
 1.000E-01 5.76512E-08
 2.000E-01 5.48790E-07
 3.000E-01 2.49379E-05
 4.000E-01 6.97960E-05
 5.000E-01 1.28675E-04
 7.500E-01 2.80667E-04
 1.000E+00 6.52779E-04
 1.200E+00 1.04323E-03
 1.400E+00 1.77489E-03
 1.600E+00 2.75178E-03
 1.800E+00 4.14529E-03
 2.000E+00 6.23983E-03
 2.200E+00 9.02792E-03
 2.400E+00 1.28013E-02
 2.600E+00 1.78512E-02
 2.800E+00 2.26395E-02
 3.000E+00 2.55088E-02
 3.200E+00 2.87315E-02
 3.400E+00 1.49766E-02
 3.600E+00 1.20693E-02
 3.800E+00 1.02852E-02
 4.000E+00 8.14964E-03
 4.200E+00 4.44418E-03
 4.400E+00 3.49528E-03
 4.600E+00 2.91822E-03
 4.800E+00 2.70146E-03
 5.000E+00 2.46601E-03
 5.500E+00 2.52972E-03
 6.000E+00 2.97582E-03
 6.500E+00 3.85501E-03
 7.000E+00 5.39360E-03
 7.500E+00 8.03383E-03
 8.000E+00 1.25484E-02
 8.500E+00 1.96946E-02
 9.000E+00 2.84109E-02
 9.500E+00 3.44944E-02
 1.000E+01 3.54892E-02
 1.100E+01 3.40181E-02
 1.200E+01 3.73464E-02
 1.300E+01 4.16699E-02
 1.400E+01 4.29738E-02
 1.500E+01 3.87925E-02
 1.600E+01 3.10268E-02
 1.700E+01 2.45062E-02
 1.800E+01 2.03143E-02
 1.900E+01 1.79179E-02
 2.000E+01 1.62596E-02
 2.100E+01 1.53637E-02
 2.200E+01 1.45017E-02
 2.300E+01 1.39120E-02
 2.400E+01 1.30897E-02
 2.500E+01 1.27895E-02
 2.600E+01 1.23623E-02
 2.700E+01 1.17642E-02
 2.800E+01 1.12940E-02
 2.900E+01 1.11228E-02
 3.000E+01 1.08813E-02
