# n + 208Pb: Gamma-ray intensity - 209Pb: Level  3 --> Level  0 - gamma energy    1.567090
# E-initial  =   1.567090 E-final=   0.000000
# E-threshold= 0.00000E+00
# # energies = 67
#    E         xs
 1.000E-11 0.00000E+00
 2.530E-08 0.00000E+00
 2.000E-07 0.00000E+00
 1.000E-06 2.36820E+02
 1.000E-03 1.27319E+00
 2.000E-03 7.60208E-01
 5.000E-03 4.12580E-01
 1.000E-02 2.45606E-01
 2.000E-02 1.36931E-01
 5.000E-02 7.33082E-02
 1.000E-01 4.95357E-02
 2.000E-01 3.57773E-02
 3.000E-01 3.13385E-02
 4.000E-01 2.97318E-02
 5.000E-01 2.95471E-02
 7.500E-01 3.24730E-02
 1.000E+00 3.84149E-02
 1.200E+00 4.50069E-02
 1.400E+00 5.37879E-02
 1.600E+00 6.36348E-02
 1.800E+00 7.63372E-02
 2.000E+00 9.15285E-02
 2.200E+00 1.09430E-01
 2.400E+00 1.30473E-01
 2.600E+00 1.59431E-01
 2.800E+00 1.35931E-01
 3.000E+00 1.36215E-01
 3.200E+00 1.47731E-01
 3.400E+00 1.53886E-01
 3.600E+00 1.64981E-01
 3.800E+00 1.69124E-01
 4.000E+00 1.80011E-01
 4.200E+00 1.67363E-01
 4.400E+00 1.33826E-01
 4.600E+00 1.13074E-01
 4.800E+00 9.90709E-02
 5.000E+00 8.71150E-02
 5.500E+00 7.55749E-02
 6.000E+00 6.95297E-02
 6.500E+00 7.37323E-02
 7.000E+00 8.47503E-02
 7.500E+00 1.11238E-01
 8.000E+00 1.58068E-01
 8.500E+00 2.37577E-01
 9.000E+00 3.62543E-01
 9.500E+00 5.12876E-01
 1.000E+01 6.11891E-01
 1.100E+01 5.61209E-01
 1.200E+01 3.92518E-01
 1.300E+01 2.53539E-01
 1.400E+01 1.90188E-01
 1.500E+01 1.54756E-01
 1.600E+01 1.32048E-01
 1.700E+01 1.16105E-01
 1.800E+01 9.90178E-02
 1.900E+01 9.01934E-02
 2.000E+01 8.45479E-02
 2.100E+01 7.89303E-02
 2.200E+01 7.43897E-02
 2.300E+01 7.17932E-02
 2.400E+01 6.94745E-02
 2.500E+01 6.73372E-02
 2.600E+01 6.57608E-02
 2.700E+01 6.14786E-02
 2.800E+01 5.84280E-02
 2.900E+01 5.66756E-02
 3.000E+01 5.57871E-02
