# n + 208Pb: Gamma-ray intensity - 208Pb: Level 15 --> Level  1 - gamma energy    1.526450
# E-initial  =   4.141000 E-final=   2.614550
# E-threshold= 4.16108E+00
# # energies = 66
#    E         xs
 1.000E-11 0.00000E+00
 2.530E-08 0.00000E+00
 1.000E-06 0.00000E+00
 1.000E-03 0.00000E+00
 2.000E-03 0.00000E+00
 5.000E-03 0.00000E+00
 1.000E-02 0.00000E+00
 2.000E-02 0.00000E+00
 5.000E-02 0.00000E+00
 1.000E-01 0.00000E+00
 2.000E-01 0.00000E+00
 3.000E-01 0.00000E+00
 4.000E-01 0.00000E+00
 5.000E-01 0.00000E+00
 7.500E-01 0.00000E+00
 1.000E+00 0.00000E+00
 1.200E+00 0.00000E+00
 1.400E+00 0.00000E+00
 1.600E+00 0.00000E+00
 1.800E+00 0.00000E+00
 2.000E+00 0.00000E+00
 2.200E+00 0.00000E+00
 2.400E+00 0.00000E+00
 2.600E+00 0.00000E+00
 2.800E+00 0.00000E+00
 3.000E+00 0.00000E+00
 3.200E+00 0.00000E+00
 3.400E+00 0.00000E+00
 3.600E+00 0.00000E+00
 3.800E+00 0.00000E+00
 4.000E+00 0.00000E+00
 4.200E+00 8.88337E+00
 4.400E+00 3.17089E+01
 4.600E+00 4.05354E+01
 4.800E+00 4.29977E+01
 5.000E+00 4.35801E+01
 5.500E+00 4.39041E+01
 6.000E+00 4.20070E+01
 6.500E+00 3.77156E+01
 7.000E+00 3.35917E+01
 7.500E+00 3.06295E+01
 8.000E+00 2.58799E+01
 8.500E+00 2.04115E+01
 9.000E+00 1.54982E+01
 9.500E+00 1.16766E+01
 1.000E+01 8.54916E+00
 1.100E+01 4.94654E+00
 1.200E+01 3.46497E+00
 1.300E+01 2.76116E+00
 1.400E+01 2.44033E+00
 1.500E+01 2.20753E+00
 1.600E+01 2.05083E+00
 1.700E+01 1.96351E+00
 1.800E+01 1.86619E+00
 1.900E+01 1.74144E+00
 2.000E+01 1.69477E+00
 2.100E+01 1.58469E+00
 2.200E+01 1.53858E+00
 2.300E+01 1.42939E+00
 2.400E+01 1.38322E+00
 2.500E+01 1.33673E+00
 2.600E+01 1.23800E+00
 2.700E+01 1.20100E+00
 2.800E+01 1.17160E+00
 2.900E+01 1.14221E+00
 3.000E+01 1.06934E+00
