# n + 208Pb: Gamma-ray intensity - 208Pb: Level 21 --> Level  2 - gamma energy    1.160960
# E-initial  =   4.358670 E-final=   3.197710
# E-threshold= 4.37981E+00
# # energies = 67
#    E         xs
 1.000E-11 0.00000E+00
 2.530E-08 0.00000E+00
 2.000E-07 0.00000E+00
 1.000E-06 0.00000E+00
 1.000E-03 0.00000E+00
 2.000E-03 0.00000E+00
 5.000E-03 0.00000E+00
 1.000E-02 0.00000E+00
 2.000E-02 0.00000E+00
 5.000E-02 0.00000E+00
 1.000E-01 0.00000E+00
 2.000E-01 0.00000E+00
 3.000E-01 0.00000E+00
 4.000E-01 0.00000E+00
 5.000E-01 0.00000E+00
 7.500E-01 0.00000E+00
 1.000E+00 0.00000E+00
 1.200E+00 0.00000E+00
 1.400E+00 0.00000E+00
 1.600E+00 0.00000E+00
 1.800E+00 0.00000E+00
 2.000E+00 0.00000E+00
 2.200E+00 0.00000E+00
 2.400E+00 0.00000E+00
 2.600E+00 0.00000E+00
 2.800E+00 0.00000E+00
 3.000E+00 0.00000E+00
 3.200E+00 0.00000E+00
 3.400E+00 0.00000E+00
 3.600E+00 0.00000E+00
 3.800E+00 0.00000E+00
 4.000E+00 0.00000E+00
 4.200E+00 0.00000E+00
 4.400E+00 2.61442E+00
 4.600E+00 9.28422E+00
 4.800E+00 1.31543E+01
 5.000E+00 1.49447E+01
 5.500E+00 1.47002E+01
 6.000E+00 1.31558E+01
 6.500E+00 1.19296E+01
 7.000E+00 1.09318E+01
 7.500E+00 1.02351E+01
 8.000E+00 9.33467E+00
 8.500E+00 7.99987E+00
 9.000E+00 6.51103E+00
 9.500E+00 5.02026E+00
 1.000E+01 3.74572E+00
 1.100E+01 1.99927E+00
 1.200E+01 1.15987E+00
 1.300E+01 7.72464E-01
 1.400E+01 6.00008E-01
 1.500E+01 5.13679E-01
 1.600E+01 4.63815E-01
 1.700E+01 4.33894E-01
 1.800E+01 4.02835E-01
 1.900E+01 3.76353E-01
 2.000E+01 3.57147E-01
 2.100E+01 3.38193E-01
 2.200E+01 3.19878E-01
 2.300E+01 3.05050E-01
 2.400E+01 2.88825E-01
 2.500E+01 2.71947E-01
 2.600E+01 2.55991E-01
 2.700E+01 2.46594E-01
 2.800E+01 2.37597E-01
 2.900E+01 2.29983E-01
 3.000E+01 2.22166E-01
