# n + 208Pb: Gamma-ray intensity - 208Pb: Level  7 --> Level  4 - gamma energy    0.252520
# E-initial  =   3.960960 E-final=   3.708440
# E-threshold= 3.98017E+00
# # energies = 66
#    E         xs
 1.000E-11 0.00000E+00
 2.530E-08 0.00000E+00
 1.000E-06 0.00000E+00
 1.000E-03 0.00000E+00
 2.000E-03 0.00000E+00
 5.000E-03 0.00000E+00
 1.000E-02 0.00000E+00
 2.000E-02 0.00000E+00
 5.000E-02 0.00000E+00
 1.000E-01 0.00000E+00
 2.000E-01 0.00000E+00
 3.000E-01 0.00000E+00
 4.000E-01 0.00000E+00
 5.000E-01 0.00000E+00
 7.500E-01 0.00000E+00
 1.000E+00 0.00000E+00
 1.200E+00 0.00000E+00
 1.400E+00 0.00000E+00
 1.600E+00 0.00000E+00
 1.800E+00 0.00000E+00
 2.000E+00 0.00000E+00
 2.200E+00 0.00000E+00
 2.400E+00 0.00000E+00
 2.600E+00 0.00000E+00
 2.800E+00 0.00000E+00
 3.000E+00 0.00000E+00
 3.200E+00 0.00000E+00
 3.400E+00 0.00000E+00
 3.600E+00 0.00000E+00
 3.800E+00 0.00000E+00
 4.000E+00 8.95700E+00
 4.200E+00 2.87173E+01
 4.400E+00 3.67593E+01
 4.600E+00 3.95671E+01
 4.800E+00 3.95244E+01
 5.000E+00 3.84741E+01
 5.500E+00 3.57015E+01
 6.000E+00 3.39565E+01
 6.500E+00 3.32272E+01
 7.000E+00 3.34800E+01
 7.500E+00 3.44456E+01
 8.000E+00 3.46567E+01
 8.500E+00 3.23803E+01
 9.000E+00 2.77240E+01
 9.500E+00 2.23354E+01
 1.000E+01 1.72671E+01
 1.100E+01 9.97069E+00
 1.200E+01 6.41043E+00
 1.300E+01 4.87456E+00
 1.400E+01 4.17977E+00
 1.500E+01 3.82104E+00
 1.600E+01 3.57984E+00
 1.700E+01 3.42010E+00
 1.800E+01 3.23492E+00
 1.900E+01 3.07881E+00
 2.000E+01 2.94264E+00
 2.100E+01 2.82082E+00
 2.200E+01 2.69053E+00
 2.300E+01 2.58230E+00
 2.400E+01 2.45218E+00
 2.500E+01 2.34646E+00
 2.600E+01 2.24263E+00
 2.700E+01 2.15362E+00
 2.800E+01 2.07612E+00
 2.900E+01 1.99526E+00
 3.000E+01 1.91396E+00
