# n + 208Pb: Gamma-ray intensity - 209Pb: Level  7 --> Level  0 - gamma energy    2.424000
# E-initial  =   2.424000 E-final=   0.000000
# E-threshold= 0.00000E+00
# # energies = 67
#    E         xs
 1.000E-11 0.00000E+00
 2.530E-08 0.00000E+00
 2.000E-07 0.00000E+00
 1.000E-06 8.80137E-03
 1.000E-03 6.03066E-03
 2.000E-03 7.78343E-03
 5.000E-03 9.27357E-03
 1.000E-02 7.20845E-03
 2.000E-02 4.51689E-03
 5.000E-02 2.46183E-03
 1.000E-01 1.82938E-03
 2.000E-01 1.87844E-03
 3.000E-01 2.01393E-03
 4.000E-01 2.10343E-03
 5.000E-01 2.20202E-03
 7.500E-01 2.56363E-03
 1.000E+00 3.09333E-03
 1.200E+00 3.64791E-03
 1.400E+00 4.35364E-03
 1.600E+00 5.18018E-03
 1.800E+00 6.20937E-03
 2.000E+00 7.44636E-03
 2.200E+00 8.91576E-03
 2.400E+00 1.06600E-02
 2.600E+00 1.28773E-02
 2.800E+00 9.10337E-03
 3.000E+00 8.60611E-03
 3.200E+00 9.02951E-03
 3.400E+00 8.46748E-03
 3.600E+00 8.35352E-03
 3.800E+00 8.15868E-03
 4.000E+00 8.19688E-03
 4.200E+00 7.19341E-03
 4.400E+00 5.75354E-03
 4.600E+00 5.00219E-03
 4.800E+00 4.47178E-03
 5.000E+00 3.97847E-03
 5.500E+00 3.41495E-03
 6.000E+00 2.99764E-03
 6.500E+00 3.01709E-03
 7.000E+00 3.18367E-03
 7.500E+00 3.83029E-03
 8.000E+00 4.98484E-03
 8.500E+00 6.82814E-03
 9.000E+00 1.01091E-02
 9.500E+00 1.50502E-02
 1.000E+01 2.04220E-02
 1.100E+01 2.35305E-02
 1.200E+01 1.70423E-02
 1.300E+01 1.08341E-02
 1.400E+01 8.29446E-03
 1.500E+01 6.60740E-03
 1.600E+01 5.49679E-03
 1.700E+01 4.73078E-03
 1.800E+01 4.02437E-03
 1.900E+01 3.67841E-03
 2.000E+01 3.45627E-03
 2.100E+01 3.23196E-03
 2.200E+01 3.01240E-03
 2.300E+01 2.91804E-03
 2.400E+01 2.82869E-03
 2.500E+01 2.75037E-03
 2.600E+01 2.71347E-03
 2.700E+01 2.62951E-03
 2.800E+01 2.47448E-03
 2.900E+01 2.46018E-03
 3.000E+01 2.46853E-03
