# n + 208Pb: Gamma-ray intensity - 208Pb: Level 28 --> Level 10 - gamma energy    0.647189
# E-initial  =   4.698323 E-final=   4.051134
# E-threshold= 4.72111E+00
# # energies =    67
#    E           xs
 1.00000E-11 0.00000E+00
 2.53000E-08 0.00000E+00
 2.00000E-07 0.00000E+00
 1.00000E-06 0.00000E+00
 1.00000E-03 0.00000E+00
 2.00000E-03 0.00000E+00
 5.00000E-03 0.00000E+00
 1.00000E-02 0.00000E+00
 2.00000E-02 0.00000E+00
 5.00000E-02 0.00000E+00
 1.00000E-01 0.00000E+00
 2.00000E-01 0.00000E+00
 3.00000E-01 0.00000E+00
 4.00000E-01 0.00000E+00
 5.00000E-01 0.00000E+00
 7.50000E-01 0.00000E+00
 1.00000E+00 0.00000E+00
 1.20000E+00 0.00000E+00
 1.40000E+00 0.00000E+00
 1.60000E+00 0.00000E+00
 1.80000E+00 0.00000E+00
 2.00000E+00 0.00000E+00
 2.20000E+00 0.00000E+00
 2.40000E+00 0.00000E+00
 2.60000E+00 0.00000E+00
 2.80000E+00 0.00000E+00
 3.00000E+00 0.00000E+00
 3.20000E+00 0.00000E+00
 3.40000E+00 0.00000E+00
 3.60000E+00 0.00000E+00
 3.80000E+00 0.00000E+00
 4.00000E+00 0.00000E+00
 4.20000E+00 0.00000E+00
 4.40000E+00 0.00000E+00
 4.60000E+00 0.00000E+00
 4.80000E+00 2.64367E-01
 5.00000E+00 5.57695E-01
 5.50000E+00 7.68249E-01
 6.00000E+00 6.79592E-01
 6.50000E+00 6.01320E-01
 7.00000E+00 5.43986E-01
 7.50000E+00 4.95349E-01
 8.00000E+00 4.24285E-01
 8.50000E+00 3.36387E-01
 9.00000E+00 2.59067E-01
 9.50000E+00 1.92141E-01
 1.00000E+01 1.41508E-01
 1.10000E+01 8.14907E-02
 1.20000E+01 5.55156E-02
 1.30000E+01 4.40816E-02
 1.40000E+01 3.90761E-02
 1.50000E+01 3.60647E-02
 1.60000E+01 3.37289E-02
 1.70000E+01 3.25275E-02
 1.80000E+01 3.09753E-02
 1.90000E+01 2.97143E-02
 2.00000E+01 2.88878E-02
 2.10000E+01 2.81206E-02
 2.20000E+01 2.69278E-02
 2.30000E+01 2.61331E-02
 2.40000E+01 2.52356E-02
 2.50000E+01 2.41384E-02
 2.60000E+01 2.34266E-02
 2.70000E+01 2.29101E-02
 2.80000E+01 2.21796E-02
 2.90000E+01 2.14830E-02
 3.00000E+01 2.09639E-02
