# n + 208Pb: Gamma-ray intensity - 208Pb: Level 24 --> Level  1 - gamma energy    1.832480
# E-initial  =   4.447000 E-final=   2.614520
# E-threshold= 4.46857E+00
# # energies = 67
#    E         xs
 1.000E-11 0.00000E+00
 2.530E-08 0.00000E+00
 2.000E-07 0.00000E+00
 1.000E-06 0.00000E+00
 1.000E-03 0.00000E+00
 2.000E-03 0.00000E+00
 5.000E-03 0.00000E+00
 1.000E-02 0.00000E+00
 2.000E-02 0.00000E+00
 5.000E-02 0.00000E+00
 1.000E-01 0.00000E+00
 2.000E-01 0.00000E+00
 3.000E-01 0.00000E+00
 4.000E-01 0.00000E+00
 5.000E-01 0.00000E+00
 7.500E-01 0.00000E+00
 1.000E+00 0.00000E+00
 1.200E+00 0.00000E+00
 1.400E+00 0.00000E+00
 1.600E+00 0.00000E+00
 1.800E+00 0.00000E+00
 2.000E+00 0.00000E+00
 2.200E+00 0.00000E+00
 2.400E+00 0.00000E+00
 2.600E+00 0.00000E+00
 2.800E+00 0.00000E+00
 3.000E+00 0.00000E+00
 3.200E+00 0.00000E+00
 3.400E+00 0.00000E+00
 3.600E+00 0.00000E+00
 3.800E+00 0.00000E+00
 4.000E+00 0.00000E+00
 4.200E+00 0.00000E+00
 4.400E+00 0.00000E+00
 4.600E+00 1.32920E+01
 4.800E+00 2.60865E+01
 5.000E+00 3.17999E+01
 5.500E+00 3.33219E+01
 6.000E+00 3.30066E+01
 6.500E+00 3.15077E+01
 7.000E+00 2.82074E+01
 7.500E+00 2.50990E+01
 8.000E+00 2.11388E+01
 8.500E+00 1.68736E+01
 9.000E+00 1.33566E+01
 9.500E+00 1.00380E+01
 1.000E+01 7.65234E+00
 1.100E+01 4.49340E+00
 1.200E+01 3.04516E+00
 1.300E+01 2.35158E+00
 1.400E+01 2.04035E+00
 1.500E+01 1.85216E+00
 1.600E+01 1.71387E+00
 1.700E+01 1.63937E+00
 1.800E+01 1.52645E+00
 1.900E+01 1.44177E+00
 2.000E+01 1.36649E+00
 2.100E+01 1.31102E+00
 2.200E+01 1.22800E+00
 2.300E+01 1.18429E+00
 2.400E+01 1.14052E+00
 2.500E+01 1.07001E+00
 2.600E+01 1.02000E+00
 2.700E+01 9.90395E-01
 2.800E+01 9.63455E-01
 2.900E+01 9.25688E-01
 3.000E+01 8.94186E-01
