# n + 208Pb: Gamma-ray intensity - 209Pb: Level  7 --> Level  0 - gamma energy    2.424000
# E-initial  =   2.424000 E-final=   0.000000
# E-threshold= 0.00000E+00
# # energies = 67
#    E         xs
 1.000E-11 0.00000E+00
 2.530E-08 0.00000E+00
 2.000E-07 0.00000E+00
 1.000E-06 6.68058E-02
 1.000E-03 1.44623E-02
 2.000E-03 1.16926E-02
 5.000E-03 1.13163E-02
 1.000E-02 9.00516E-03
 2.000E-02 5.80655E-03
 5.000E-02 3.32842E-03
 1.000E-01 2.55911E-03
 2.000E-01 2.48292E-03
 3.000E-01 2.55812E-03
 4.000E-01 2.60676E-03
 5.000E-01 2.68091E-03
 7.500E-01 3.01901E-03
 1.000E+00 3.51934E-03
 1.200E+00 4.02248E-03
 1.400E+00 4.65424E-03
 1.600E+00 5.33324E-03
 1.800E+00 6.17457E-03
 2.000E+00 7.16239E-03
 2.200E+00 8.30745E-03
 2.400E+00 9.65671E-03
 2.600E+00 1.17450E-02
 2.800E+00 8.89993E-03
 3.000E+00 8.59521E-03
 3.200E+00 9.20679E-03
 3.400E+00 8.83864E-03
 3.600E+00 9.04255E-03
 3.800E+00 9.23338E-03
 4.000E+00 9.70665E-03
 4.200E+00 8.91887E-03
 4.400E+00 7.02085E-03
 4.600E+00 5.62310E-03
 4.800E+00 4.55841E-03
 5.000E+00 3.70462E-03
 5.500E+00 2.65822E-03
 6.000E+00 2.09654E-03
 6.500E+00 1.98172E-03
 7.000E+00 2.08871E-03
 7.500E+00 2.62656E-03
 8.000E+00 3.69242E-03
 8.500E+00 5.56874E-03
 9.000E+00 8.95981E-03
 9.500E+00 1.43931E-02
 1.000E+01 2.09810E-02
 1.100E+01 2.59631E-02
 1.200E+01 1.87562E-02
 1.300E+01 1.17630E-02
 1.400E+01 8.90560E-03
 1.500E+01 7.04801E-03
 1.600E+01 5.84659E-03
 1.700E+01 4.96656E-03
 1.800E+01 4.20915E-03
 1.900E+01 3.82893E-03
 2.000E+01 3.54847E-03
 2.100E+01 3.38255E-03
 2.200E+01 3.21260E-03
 2.300E+01 3.13621E-03
 2.400E+01 3.01592E-03
 2.500E+01 2.96893E-03
 2.600E+01 2.94052E-03
 2.700E+01 2.84654E-03
 2.800E+01 2.70512E-03
 2.900E+01 2.70381E-03
 3.000E+01 2.71611E-03
