# n + 208Pb: Gamma-ray intensity - 209Pb: Level  2 --> Level  1 - gamma energy    0.644200
# E-initial  =   1.423000 E-final=   0.778800
# E-threshold= 0.00000E+00
# # energies =    67
#    E           xs
 1.00000E-11 0.00000E+00
 2.53000E-08 0.00000E+00
 2.00000E-07 0.00000E+00
 1.00000E-06 0.00000E+00
 1.00000E-03 0.00000E+00
 2.00000E-03 0.00000E+00
 5.00000E-03 0.00000E+00
 1.00000E-02 0.00000E+00
 2.00000E-02 0.00000E+00
 5.00000E-02 1.18608E-10
 1.00000E-01 3.64373E-09
 2.00000E-01 3.59346E-08
 3.00000E-01 3.59929E-06
 4.00000E-01 1.00075E-05
 5.00000E-01 1.83147E-05
 7.50000E-01 4.14313E-05
 1.00000E+00 2.34082E-04
 1.20000E+00 4.20891E-04
 1.40000E+00 7.91882E-04
 1.60000E+00 1.24325E-03
 1.80000E+00 1.86508E-03
 2.00000E+00 2.83508E-03
 2.20000E+00 4.08049E-03
 2.40000E+00 5.76230E-03
 2.60000E+00 8.00510E-03
 2.80000E+00 1.01058E-02
 3.00000E+00 1.12462E-02
 3.20000E+00 1.23756E-02
 3.40000E+00 5.96291E-03
 3.60000E+00 4.32546E-03
 3.80000E+00 3.46308E-03
 4.00000E+00 2.58807E-03
 4.20000E+00 1.35535E-03
 4.40000E+00 1.03915E-03
 4.60000E+00 9.06655E-04
 4.80000E+00 1.44344E-03
 5.00000E+00 1.43503E-03
 5.50000E+00 1.78612E-03
 6.00000E+00 2.31900E-03
 6.50000E+00 3.20186E-03
 7.00000E+00 4.58969E-03
 7.50000E+00 6.85393E-03
 8.00000E+00 1.04960E-02
 8.50000E+00 1.61007E-02
 9.00000E+00 2.26964E-02
 9.50000E+00 2.71176E-02
 1.00000E+01 2.78660E-02
 1.10000E+01 2.68088E-02
 1.20000E+01 2.89201E-02
 1.30000E+01 3.17686E-02
 1.40000E+01 3.25446E-02
 1.50000E+01 2.99789E-02
 1.60000E+01 2.49789E-02
 1.70000E+01 2.05318E-02
 1.80000E+01 1.69745E-02
 1.90000E+01 1.50118E-02
 2.00000E+01 1.35269E-02
 2.10000E+01 1.17645E-02
 2.20000E+01 1.07863E-02
 2.30000E+01 9.60858E-03
 2.40000E+01 8.72991E-03
 2.50000E+01 8.12046E-03
 2.60000E+01 7.61180E-03
 2.70000E+01 7.19013E-03
 2.80000E+01 6.84623E-03
 2.90000E+01 6.57768E-03
 3.00000E+01 6.34462E-03
