# n + 208Pb: Gamma-ray intensity - 207Pb: Level  5 --> Level  2 - gamma energy    1.725700
# E-initial  =   2.623500 E-final=   0.897800
# E-threshold= 1.00398E+01
# # energies = 67
#    E         xs
 1.000E-11 0.00000E+00
 2.530E-08 0.00000E+00
 2.000E-07 0.00000E+00
 1.000E-06 0.00000E+00
 1.000E-03 0.00000E+00
 2.000E-03 0.00000E+00
 5.000E-03 0.00000E+00
 1.000E-02 0.00000E+00
 2.000E-02 0.00000E+00
 5.000E-02 0.00000E+00
 1.000E-01 0.00000E+00
 2.000E-01 0.00000E+00
 3.000E-01 0.00000E+00
 4.000E-01 0.00000E+00
 5.000E-01 0.00000E+00
 7.500E-01 0.00000E+00
 1.000E+00 0.00000E+00
 1.200E+00 0.00000E+00
 1.400E+00 0.00000E+00
 1.600E+00 0.00000E+00
 1.800E+00 0.00000E+00
 2.000E+00 0.00000E+00
 2.200E+00 0.00000E+00
 2.400E+00 0.00000E+00
 2.600E+00 0.00000E+00
 2.800E+00 0.00000E+00
 3.000E+00 0.00000E+00
 3.200E+00 0.00000E+00
 3.400E+00 0.00000E+00
 3.600E+00 0.00000E+00
 3.800E+00 0.00000E+00
 4.000E+00 0.00000E+00
 4.200E+00 0.00000E+00
 4.400E+00 0.00000E+00
 4.600E+00 0.00000E+00
 4.800E+00 0.00000E+00
 5.000E+00 0.00000E+00
 5.500E+00 0.00000E+00
 6.000E+00 0.00000E+00
 6.500E+00 0.00000E+00
 7.000E+00 0.00000E+00
 7.500E+00 0.00000E+00
 8.000E+00 0.00000E+00
 8.500E+00 0.00000E+00
 9.000E+00 0.00000E+00
 9.500E+00 0.00000E+00
 1.000E+01 0.00000E+00
 1.100E+01 9.17554E+00
 1.200E+01 3.39465E+01
 1.300E+01 5.81863E+01
 1.400E+01 7.10148E+01
 1.500E+01 7.37186E+01
 1.600E+01 6.84115E+01
 1.700E+01 5.76367E+01
 1.800E+01 4.58878E+01
 1.900E+01 3.60818E+01
 2.000E+01 2.86273E+01
 2.100E+01 2.31214E+01
 2.200E+01 1.93240E+01
 2.300E+01 1.67762E+01
 2.400E+01 1.49659E+01
 2.500E+01 1.37270E+01
 2.600E+01 1.28586E+01
 2.700E+01 1.21440E+01
 2.800E+01 1.17103E+01
 2.900E+01 1.11770E+01
 3.000E+01 1.07590E+01
