# n + 208Pb: Gamma-ray intensity - 207Pb: Level  5 --> Level  2 - gamma energy    1.726172
# E-initial  =   2.623870 E-final=   0.897698
# E-threshold= 1.00402E+01
# # energies = 67
#    E         xs
 1.000E-11 0.00000E+00
 2.530E-08 0.00000E+00
 2.000E-07 0.00000E+00
 1.000E-06 0.00000E+00
 1.000E-03 0.00000E+00
 2.000E-03 0.00000E+00
 5.000E-03 0.00000E+00
 1.000E-02 0.00000E+00
 2.000E-02 0.00000E+00
 5.000E-02 0.00000E+00
 1.000E-01 0.00000E+00
 2.000E-01 0.00000E+00
 3.000E-01 0.00000E+00
 4.000E-01 0.00000E+00
 5.000E-01 0.00000E+00
 7.500E-01 0.00000E+00
 1.000E+00 0.00000E+00
 1.200E+00 0.00000E+00
 1.400E+00 0.00000E+00
 1.600E+00 0.00000E+00
 1.800E+00 0.00000E+00
 2.000E+00 0.00000E+00
 2.200E+00 0.00000E+00
 2.400E+00 0.00000E+00
 2.600E+00 0.00000E+00
 2.800E+00 0.00000E+00
 3.000E+00 0.00000E+00
 3.200E+00 0.00000E+00
 3.400E+00 0.00000E+00
 3.600E+00 0.00000E+00
 3.800E+00 0.00000E+00
 4.000E+00 0.00000E+00
 4.200E+00 0.00000E+00
 4.400E+00 0.00000E+00
 4.600E+00 0.00000E+00
 4.800E+00 0.00000E+00
 5.000E+00 0.00000E+00
 5.500E+00 0.00000E+00
 6.000E+00 0.00000E+00
 6.500E+00 0.00000E+00
 7.000E+00 0.00000E+00
 7.500E+00 0.00000E+00
 8.000E+00 0.00000E+00
 8.500E+00 0.00000E+00
 9.000E+00 0.00000E+00
 9.500E+00 0.00000E+00
 1.000E+01 0.00000E+00
 1.100E+01 7.37238E+00
 1.200E+01 2.42037E+01
 1.300E+01 3.76618E+01
 1.400E+01 4.25151E+01
 1.500E+01 4.22262E+01
 1.600E+01 3.91009E+01
 1.700E+01 3.42191E+01
 1.800E+01 2.89878E+01
 1.900E+01 2.39532E+01
 2.000E+01 1.96534E+01
 2.100E+01 1.59851E+01
 2.200E+01 1.34762E+01
 2.300E+01 1.16473E+01
 2.400E+01 1.04613E+01
 2.500E+01 9.60487E+00
 2.600E+01 9.02695E+00
 2.700E+01 8.59963E+00
 2.800E+01 8.30096E+00
 2.900E+01 7.98758E+00
 3.000E+01 7.75905E+00
