# n + 208Pb: Gamma-ray intensity - 208Pb: Level 30 --> Level  1 - gamma energy    2.097295
# E-initial  =   4.711817 E-final=   2.614522
# E-threshold= 4.73467E+00
# # energies =    67
#    E           xs
 1.00000E-11 0.00000E+00
 2.53000E-08 0.00000E+00
 2.00000E-07 0.00000E+00
 1.00000E-06 0.00000E+00
 1.00000E-03 0.00000E+00
 2.00000E-03 0.00000E+00
 5.00000E-03 0.00000E+00
 1.00000E-02 0.00000E+00
 2.00000E-02 0.00000E+00
 5.00000E-02 0.00000E+00
 1.00000E-01 0.00000E+00
 2.00000E-01 0.00000E+00
 3.00000E-01 0.00000E+00
 4.00000E-01 0.00000E+00
 5.00000E-01 0.00000E+00
 7.50000E-01 0.00000E+00
 1.00000E+00 0.00000E+00
 1.20000E+00 0.00000E+00
 1.40000E+00 0.00000E+00
 1.60000E+00 0.00000E+00
 1.80000E+00 0.00000E+00
 2.00000E+00 0.00000E+00
 2.20000E+00 0.00000E+00
 2.40000E+00 0.00000E+00
 2.60000E+00 0.00000E+00
 2.80000E+00 0.00000E+00
 3.00000E+00 0.00000E+00
 3.20000E+00 0.00000E+00
 3.40000E+00 0.00000E+00
 3.60000E+00 0.00000E+00
 3.80000E+00 0.00000E+00
 4.00000E+00 0.00000E+00
 4.20000E+00 0.00000E+00
 4.40000E+00 0.00000E+00
 4.60000E+00 0.00000E+00
 4.80000E+00 9.35470E+00
 5.00000E+00 2.08564E+01
 5.50000E+00 3.06334E+01
 6.00000E+00 2.76632E+01
 6.50000E+00 2.44945E+01
 7.00000E+00 2.20817E+01
 7.50000E+00 2.00881E+01
 8.00000E+00 1.77016E+01
 8.50000E+00 1.45903E+01
 9.00000E+00 1.13835E+01
 9.50000E+00 8.40310E+00
 1.00000E+01 5.98648E+00
 1.10000E+01 2.92009E+00
 1.20000E+01 1.58992E+00
 1.30000E+01 1.03384E+00
 1.40000E+01 8.01103E-01
 1.50000E+01 6.92667E-01
 1.60000E+01 6.28506E-01
 1.70000E+01 6.00376E-01
 1.80000E+01 5.63676E-01
 1.90000E+01 5.32551E-01
 2.00000E+01 5.10597E-01
 2.10000E+01 4.91292E-01
 2.20000E+01 4.69003E-01
 2.30000E+01 4.53263E-01
 2.40000E+01 4.32831E-01
 2.50000E+01 4.11298E-01
 2.60000E+01 3.93005E-01
 2.70000E+01 3.81380E-01
 2.80000E+01 3.59579E-01
 2.90000E+01 3.47439E-01
 3.00000E+01 3.36387E-01
