# n + 208Pb: Gamma-ray intensity - 208Pb: Level 29 --> Level  4 - gamma energy    1.000280
# E-initial  =   4.708730 E-final=   3.708450
# E-threshold= 4.73157E+00
# # energies = 67
#    E         xs
 1.000E-11 0.00000E+00
 2.530E-08 0.00000E+00
 2.000E-07 0.00000E+00
 1.000E-06 0.00000E+00
 1.000E-03 0.00000E+00
 2.000E-03 0.00000E+00
 5.000E-03 0.00000E+00
 1.000E-02 0.00000E+00
 2.000E-02 0.00000E+00
 5.000E-02 0.00000E+00
 1.000E-01 0.00000E+00
 2.000E-01 0.00000E+00
 3.000E-01 0.00000E+00
 4.000E-01 0.00000E+00
 5.000E-01 0.00000E+00
 7.500E-01 0.00000E+00
 1.000E+00 0.00000E+00
 1.200E+00 0.00000E+00
 1.400E+00 0.00000E+00
 1.600E+00 0.00000E+00
 1.800E+00 0.00000E+00
 2.000E+00 0.00000E+00
 2.200E+00 0.00000E+00
 2.400E+00 0.00000E+00
 2.600E+00 0.00000E+00
 2.800E+00 0.00000E+00
 3.000E+00 0.00000E+00
 3.200E+00 0.00000E+00
 3.400E+00 0.00000E+00
 3.600E+00 0.00000E+00
 3.800E+00 0.00000E+00
 4.000E+00 0.00000E+00
 4.200E+00 0.00000E+00
 4.400E+00 0.00000E+00
 4.600E+00 0.00000E+00
 4.800E+00 3.72055E+00
 5.000E+00 8.91066E+00
 5.500E+00 1.43172E+01
 6.000E+00 1.44266E+01
 6.500E+00 1.41238E+01
 7.000E+00 1.39910E+01
 7.500E+00 1.38476E+01
 8.000E+00 1.35339E+01
 8.500E+00 1.27722E+01
 9.000E+00 1.15409E+01
 9.500E+00 1.01366E+01
 1.000E+01 8.76076E+00
 1.100E+01 6.59932E+00
 1.200E+01 5.38923E+00
 1.300E+01 4.77123E+00
 1.400E+01 4.42311E+00
 1.500E+01 4.16553E+00
 1.600E+01 3.95141E+00
 1.700E+01 3.77420E+00
 1.800E+01 3.62522E+00
 1.900E+01 3.49940E+00
 2.000E+01 3.39032E+00
 2.100E+01 3.27617E+00
 2.200E+01 3.15991E+00
 2.300E+01 3.04431E+00
 2.400E+01 2.93234E+00
 2.500E+01 2.83270E+00
 2.600E+01 2.74303E+00
 2.700E+01 2.66676E+00
 2.800E+01 2.59382E+00
 2.900E+01 2.52402E+00
 3.000E+01 2.45363E+00
