# n + 208Pb: Gamma-ray intensity - 208Pb: Level 13 --> Level  1 - gamma energy    1.491450
# E-initial  =   4.106000 E-final=   2.614550
# E-threshold= 4.12591E+00
# # energies = 67
#    E         xs
 1.000E-11 0.00000E+00
 2.530E-08 0.00000E+00
 2.000E-07 0.00000E+00
 1.000E-06 0.00000E+00
 1.000E-03 0.00000E+00
 2.000E-03 0.00000E+00
 5.000E-03 0.00000E+00
 1.000E-02 0.00000E+00
 2.000E-02 0.00000E+00
 5.000E-02 0.00000E+00
 1.000E-01 0.00000E+00
 2.000E-01 0.00000E+00
 3.000E-01 0.00000E+00
 4.000E-01 0.00000E+00
 5.000E-01 0.00000E+00
 7.500E-01 0.00000E+00
 1.000E+00 0.00000E+00
 1.200E+00 0.00000E+00
 1.400E+00 0.00000E+00
 1.600E+00 0.00000E+00
 1.800E+00 0.00000E+00
 2.000E+00 0.00000E+00
 2.200E+00 0.00000E+00
 2.400E+00 0.00000E+00
 2.600E+00 0.00000E+00
 2.800E+00 0.00000E+00
 3.000E+00 0.00000E+00
 3.200E+00 0.00000E+00
 3.400E+00 0.00000E+00
 3.600E+00 0.00000E+00
 3.800E+00 0.00000E+00
 4.000E+00 0.00000E+00
 4.200E+00 1.97445E+01
 4.400E+00 3.69258E+01
 4.600E+00 4.38780E+01
 4.800E+00 4.52519E+01
 5.000E+00 4.40758E+01
 5.500E+00 3.89741E+01
 6.000E+00 3.50469E+01
 6.500E+00 3.21692E+01
 7.000E+00 3.00033E+01
 7.500E+00 2.84871E+01
 8.000E+00 2.54743E+01
 8.500E+00 2.12606E+01
 9.000E+00 1.69415E+01
 9.500E+00 1.31610E+01
 1.000E+01 9.79594E+00
 1.100E+01 5.54504E+00
 1.200E+01 3.59587E+00
 1.300E+01 2.63487E+00
 1.400E+01 2.18118E+00
 1.500E+01 1.92211E+00
 1.600E+01 1.76182E+00
 1.700E+01 1.67488E+00
 1.800E+01 1.58452E+00
 1.900E+01 1.49259E+00
 2.000E+01 1.44384E+00
 2.100E+01 1.36665E+00
 2.200E+01 1.34416E+00
 2.300E+01 1.26673E+00
 2.400E+01 1.22010E+00
 2.500E+01 1.19150E+00
 2.600E+01 1.11492E+00
 2.700E+01 1.08411E+00
 2.800E+01 1.04122E+00
 2.900E+01 1.02752E+00
 3.000E+01 9.64230E-01
