# n + 208Pb: Gamma-ray intensity - 208Pb: Level 12 --> Level  7 - gamma energy    0.164185
# E-initial  =   4.125347 E-final=   3.961162
# E-threshold= 4.14535E+00
# # energies =    67
#    E           xs
 1.00000E-11 0.00000E+00
 2.53000E-08 0.00000E+00
 2.00000E-07 0.00000E+00
 1.00000E-06 0.00000E+00
 1.00000E-03 0.00000E+00
 2.00000E-03 0.00000E+00
 5.00000E-03 0.00000E+00
 1.00000E-02 0.00000E+00
 2.00000E-02 0.00000E+00
 5.00000E-02 0.00000E+00
 1.00000E-01 0.00000E+00
 2.00000E-01 0.00000E+00
 3.00000E-01 0.00000E+00
 4.00000E-01 0.00000E+00
 5.00000E-01 0.00000E+00
 7.50000E-01 0.00000E+00
 1.00000E+00 0.00000E+00
 1.20000E+00 0.00000E+00
 1.40000E+00 0.00000E+00
 1.60000E+00 0.00000E+00
 1.80000E+00 0.00000E+00
 2.00000E+00 0.00000E+00
 2.20000E+00 0.00000E+00
 2.40000E+00 0.00000E+00
 2.60000E+00 0.00000E+00
 2.80000E+00 0.00000E+00
 3.00000E+00 0.00000E+00
 3.20000E+00 0.00000E+00
 3.40000E+00 0.00000E+00
 3.60000E+00 0.00000E+00
 3.80000E+00 0.00000E+00
 4.00000E+00 0.00000E+00
 4.20000E+00 7.22362E-01
 4.40000E+00 1.62848E+00
 4.60000E+00 2.14044E+00
 4.80000E+00 2.41396E+00
 5.00000E+00 2.50638E+00
 5.50000E+00 2.45282E+00
 6.00000E+00 2.35899E+00
 6.50000E+00 2.29771E+00
 7.00000E+00 2.27930E+00
 7.50000E+00 2.30519E+00
 8.00000E+00 2.29016E+00
 8.50000E+00 2.13768E+00
 9.00000E+00 1.85872E+00
 9.50000E+00 1.53825E+00
 1.00000E+01 1.23655E+00
 1.10000E+01 7.99055E-01
 1.20000E+01 5.82446E-01
 1.30000E+01 4.84153E-01
 1.40000E+01 4.35042E-01
 1.50000E+01 4.04049E-01
 1.60000E+01 3.80172E-01
 1.70000E+01 3.62498E-01
 1.80000E+01 3.45570E-01
 1.90000E+01 3.31094E-01
 2.00000E+01 3.18170E-01
 2.10000E+01 3.05609E-01
 2.20000E+01 2.92939E-01
 2.30000E+01 2.80938E-01
 2.40000E+01 2.69493E-01
 2.50000E+01 2.58137E-01
 2.60000E+01 2.48315E-01
 2.70000E+01 2.40091E-01
 2.80000E+01 2.32022E-01
 2.90000E+01 2.24726E-01
 3.00000E+01 2.17550E-01
