# n + 208Pb: Gamma-ray intensity - 208Pb: Level 16 --> Level  1 - gamma energy    1.544450
# E-initial  =   4.159000 E-final=   2.614550
# E-threshold= 4.17917E+00
# # energies = 66
#    E         xs
 1.000E-11 0.00000E+00
 2.530E-08 0.00000E+00
 1.000E-06 0.00000E+00
 1.000E-03 0.00000E+00
 2.000E-03 0.00000E+00
 5.000E-03 0.00000E+00
 1.000E-02 0.00000E+00
 2.000E-02 0.00000E+00
 5.000E-02 0.00000E+00
 1.000E-01 0.00000E+00
 2.000E-01 0.00000E+00
 3.000E-01 0.00000E+00
 4.000E-01 0.00000E+00
 5.000E-01 0.00000E+00
 7.500E-01 0.00000E+00
 1.000E+00 0.00000E+00
 1.200E+00 0.00000E+00
 1.400E+00 0.00000E+00
 1.600E+00 0.00000E+00
 1.800E+00 0.00000E+00
 2.000E+00 0.00000E+00
 2.200E+00 0.00000E+00
 2.400E+00 0.00000E+00
 2.600E+00 0.00000E+00
 2.800E+00 0.00000E+00
 3.000E+00 0.00000E+00
 3.200E+00 0.00000E+00
 3.400E+00 0.00000E+00
 3.600E+00 0.00000E+00
 3.800E+00 0.00000E+00
 4.000E+00 0.00000E+00
 4.200E+00 5.56348E+00
 4.400E+00 2.91451E+01
 4.600E+00 3.85866E+01
 4.800E+00 4.12561E+01
 5.000E+00 4.18041E+01
 5.500E+00 4.19225E+01
 6.000E+00 4.01384E+01
 6.500E+00 3.60559E+01
 7.000E+00 3.20655E+01
 7.500E+00 2.91931E+01
 8.000E+00 2.46305E+01
 8.500E+00 1.94013E+01
 9.000E+00 1.47097E+01
 9.500E+00 1.10648E+01
 1.000E+01 8.08527E+00
 1.100E+01 4.65311E+00
 1.200E+01 3.24054E+00
 1.300E+01 2.56955E+00
 1.400E+01 2.26617E+00
 1.500E+01 2.04685E+00
 1.600E+01 1.90112E+00
 1.700E+01 1.82208E+00
 1.800E+01 1.73258E+00
 1.900E+01 1.61657E+00
 2.000E+01 1.57546E+00
 2.100E+01 1.47283E+00
 2.200E+01 1.43156E+00
 2.300E+01 1.32903E+00
 2.400E+01 1.28694E+00
 2.500E+01 1.24538E+00
 2.600E+01 1.15214E+00
 2.700E+01 1.11808E+00
 2.800E+01 1.09137E+00
 2.900E+01 1.06400E+00
 3.000E+01 9.95563E-01
