# n + 208Pb: Gamma-ray intensity - 207Pb: Level  6 --> Level  0 - gamma energy    2.662480
# E-initial  =   2.662480 E-final=   0.000000
# E-threshold= 1.00790E+01
# # energies = 67
#    E         xs
 1.000E-11 0.00000E+00
 2.530E-08 0.00000E+00
 2.000E-07 0.00000E+00
 1.000E-06 0.00000E+00
 1.000E-03 0.00000E+00
 2.000E-03 0.00000E+00
 5.000E-03 0.00000E+00
 1.000E-02 0.00000E+00
 2.000E-02 0.00000E+00
 5.000E-02 0.00000E+00
 1.000E-01 0.00000E+00
 2.000E-01 0.00000E+00
 3.000E-01 0.00000E+00
 4.000E-01 0.00000E+00
 5.000E-01 0.00000E+00
 7.500E-01 0.00000E+00
 1.000E+00 0.00000E+00
 1.200E+00 0.00000E+00
 1.400E+00 0.00000E+00
 1.600E+00 0.00000E+00
 1.800E+00 0.00000E+00
 2.000E+00 0.00000E+00
 2.200E+00 0.00000E+00
 2.400E+00 0.00000E+00
 2.600E+00 0.00000E+00
 2.800E+00 0.00000E+00
 3.000E+00 0.00000E+00
 3.200E+00 0.00000E+00
 3.400E+00 0.00000E+00
 3.600E+00 0.00000E+00
 3.800E+00 0.00000E+00
 4.000E+00 0.00000E+00
 4.200E+00 0.00000E+00
 4.400E+00 0.00000E+00
 4.600E+00 0.00000E+00
 4.800E+00 0.00000E+00
 5.000E+00 0.00000E+00
 5.500E+00 0.00000E+00
 6.000E+00 0.00000E+00
 6.500E+00 0.00000E+00
 7.000E+00 0.00000E+00
 7.500E+00 0.00000E+00
 8.000E+00 0.00000E+00
 8.500E+00 0.00000E+00
 9.000E+00 0.00000E+00
 9.500E+00 0.00000E+00
 1.000E+01 0.00000E+00
 1.100E+01 6.03038E-01
 1.200E+01 2.15507E+00
 1.300E+01 3.59480E+00
 1.400E+01 4.35083E+00
 1.500E+01 4.56895E+00
 1.600E+01 4.38817E+00
 1.700E+01 3.84370E+00
 1.800E+01 3.12705E+00
 1.900E+01 2.43524E+00
 2.000E+01 1.88846E+00
 2.100E+01 1.48122E+00
 2.200E+01 1.21944E+00
 2.300E+01 1.04281E+00
 2.400E+01 9.30708E-01
 2.500E+01 8.52339E-01
 2.600E+01 7.96489E-01
 2.700E+01 7.54074E-01
 2.800E+01 7.21790E-01
 2.900E+01 6.90713E-01
 3.000E+01 6.66210E-01
