# n + 208Pb: Gamma-ray intensity - 208Pb: Level  1 --> Level  0 - gamma energy    2.614550
# E-initial  =   2.614550 E-final=   0.000000
# E-threshold= 2.62723E+00
# # energies = 66
#    E         xs
 1.000E-11 0.00000E+00
 2.530E-08 0.00000E+00
 1.000E-06 0.00000E+00
 1.000E-03 0.00000E+00
 2.000E-03 0.00000E+00
 5.000E-03 0.00000E+00
 1.000E-02 0.00000E+00
 2.000E-02 0.00000E+00
 5.000E-02 0.00000E+00
 1.000E-01 0.00000E+00
 2.000E-01 0.00000E+00
 3.000E-01 0.00000E+00
 4.000E-01 0.00000E+00
 5.000E-01 0.00000E+00
 7.500E-01 0.00000E+00
 1.000E+00 0.00000E+00
 1.200E+00 0.00000E+00
 1.400E+00 0.00000E+00
 1.600E+00 0.00000E+00
 1.800E+00 0.00000E+00
 2.000E+00 0.00000E+00
 2.200E+00 0.00000E+00
 2.400E+00 0.00000E+00
 2.600E+00 0.00000E+00
 2.800E+00 3.17262E+02
 3.000E+00 5.15225E+02
 3.200E+00 6.64598E+02
 3.400E+00 8.75004E+02
 3.600E+00 1.07182E+03
 3.800E+00 1.26071E+03
 4.000E+00 1.44374E+03
 4.200E+00 1.65842E+03
 4.400E+00 1.84501E+03
 4.600E+00 1.98003E+03
 4.800E+00 2.06991E+03
 5.000E+00 2.12470E+03
 5.500E+00 2.17370E+03
 6.000E+00 2.17705E+03
 6.500E+00 2.18234E+03
 7.000E+00 2.20108E+03
 7.500E+00 2.23219E+03
 8.000E+00 2.17342E+03
 8.500E+00 1.98847E+03
 9.000E+00 1.71452E+03
 9.500E+00 1.41423E+03
 1.000E+01 1.12619E+03
 1.100E+01 7.02439E+02
 1.200E+01 4.82203E+02
 1.300E+01 3.82233E+02
 1.400E+01 3.34518E+02
 1.500E+01 3.07912E+02
 1.600E+01 2.89615E+02
 1.700E+01 2.77548E+02
 1.800E+01 2.63294E+02
 1.900E+01 2.50976E+02
 2.000E+01 2.40740E+02
 2.100E+01 2.30112E+02
 2.200E+01 2.20276E+02
 2.300E+01 2.11042E+02
 2.400E+01 2.00879E+02
 2.500E+01 1.92170E+02
 2.600E+01 1.82669E+02
 2.700E+01 1.76003E+02
 2.800E+01 1.70451E+02
 2.900E+01 1.63586E+02
 3.000E+01 1.57014E+02
