# n + 208Pb: Gamma-ray intensity - 208Pb: Level  9 --> Level  4 - gamma energy    0.328560
# E-initial  =   4.037000 E-final=   3.708440
# E-threshold= 4.05658E+00
# # energies = 67
#    E         xs
 1.000E-11 0.00000E+00
 2.530E-08 0.00000E+00
 2.000E-07 0.00000E+00
 1.000E-06 0.00000E+00
 1.000E-03 0.00000E+00
 2.000E-03 0.00000E+00
 5.000E-03 0.00000E+00
 1.000E-02 0.00000E+00
 2.000E-02 0.00000E+00
 5.000E-02 0.00000E+00
 1.000E-01 0.00000E+00
 2.000E-01 0.00000E+00
 3.000E-01 0.00000E+00
 4.000E-01 0.00000E+00
 5.000E-01 0.00000E+00
 7.500E-01 0.00000E+00
 1.000E+00 0.00000E+00
 1.200E+00 0.00000E+00
 1.400E+00 0.00000E+00
 1.600E+00 0.00000E+00
 1.800E+00 0.00000E+00
 2.000E+00 0.00000E+00
 2.200E+00 0.00000E+00
 2.400E+00 0.00000E+00
 2.600E+00 0.00000E+00
 2.800E+00 0.00000E+00
 3.000E+00 0.00000E+00
 3.200E+00 0.00000E+00
 3.400E+00 0.00000E+00
 3.600E+00 0.00000E+00
 3.800E+00 0.00000E+00
 4.000E+00 0.00000E+00
 4.200E+00 1.75341E+00
 4.400E+00 4.72702E+00
 4.600E+00 7.38067E+00
 4.800E+00 9.82489E+00
 5.000E+00 1.25222E+01
 5.500E+00 2.12893E+01
 6.000E+00 3.26415E+01
 6.500E+00 4.58034E+01
 7.000E+00 6.02406E+01
 7.500E+00 7.54271E+01
 8.000E+00 9.02575E+01
 8.500E+00 1.02473E+02
 9.000E+00 1.08528E+02
 9.500E+00 1.04581E+02
 1.000E+01 9.33643E+01
 1.100E+01 6.60730E+01
 1.200E+01 4.50633E+01
 1.300E+01 3.45830E+01
 1.400E+01 2.95624E+01
 1.500E+01 2.73796E+01
 1.600E+01 2.60873E+01
 1.700E+01 2.56601E+01
 1.800E+01 2.47256E+01
 1.900E+01 2.40172E+01
 2.000E+01 2.32060E+01
 2.100E+01 2.24170E+01
 2.200E+01 2.17006E+01
 2.300E+01 2.10593E+01
 2.400E+01 2.00758E+01
 2.500E+01 1.93278E+01
 2.600E+01 1.84041E+01
 2.700E+01 1.77392E+01
 2.800E+01 1.72809E+01
 2.900E+01 1.63640E+01
 3.000E+01 1.58645E+01
