# n + 208Pb: Gamma-ray intensity - 208Pb: Level 10 --> Level  1 - gamma energy    1.436612
# E-initial  =   4.051134 E-final=   2.614522
# E-threshold= 4.07078E+00
# # energies =    67
#    E           xs
 1.00000E-11 0.00000E+00
 2.53000E-08 0.00000E+00
 2.00000E-07 0.00000E+00
 1.00000E-06 0.00000E+00
 1.00000E-03 0.00000E+00
 2.00000E-03 0.00000E+00
 5.00000E-03 0.00000E+00
 1.00000E-02 0.00000E+00
 2.00000E-02 0.00000E+00
 5.00000E-02 0.00000E+00
 1.00000E-01 0.00000E+00
 2.00000E-01 0.00000E+00
 3.00000E-01 0.00000E+00
 4.00000E-01 0.00000E+00
 5.00000E-01 0.00000E+00
 7.50000E-01 0.00000E+00
 1.00000E+00 0.00000E+00
 1.20000E+00 0.00000E+00
 1.40000E+00 0.00000E+00
 1.60000E+00 0.00000E+00
 1.80000E+00 0.00000E+00
 2.00000E+00 0.00000E+00
 2.20000E+00 0.00000E+00
 2.40000E+00 0.00000E+00
 2.60000E+00 0.00000E+00
 2.80000E+00 0.00000E+00
 3.00000E+00 0.00000E+00
 3.20000E+00 0.00000E+00
 3.40000E+00 0.00000E+00
 3.60000E+00 0.00000E+00
 3.80000E+00 0.00000E+00
 4.00000E+00 0.00000E+00
 4.20000E+00 5.12001E+01
 4.40000E+00 8.08814E+01
 4.60000E+00 9.25492E+01
 4.80000E+00 9.51324E+01
 5.00000E+00 9.21488E+01
 5.50000E+00 8.02065E+01
 6.00000E+00 7.15237E+01
 6.50000E+00 6.54564E+01
 7.00000E+00 6.12515E+01
 7.50000E+00 5.82524E+01
 8.00000E+00 5.13389E+01
 8.50000E+00 4.11615E+01
 9.00000E+00 3.16897E+01
 9.50000E+00 2.31370E+01
 1.00000E+01 1.67010E+01
 1.10000E+01 8.91639E+00
 1.20000E+01 5.59348E+00
 1.30000E+01 4.13884E+00
 1.40000E+01 3.51831E+00
 1.50000E+01 3.16011E+00
 1.60000E+01 2.89116E+00
 1.70000E+01 2.76085E+00
 1.80000E+01 2.56366E+00
 1.90000E+01 2.41157E+00
 2.00000E+01 2.29652E+00
 2.10000E+01 2.20477E+00
 2.20000E+01 2.06595E+00
 2.30000E+01 1.98186E+00
 2.40000E+01 1.89575E+00
 2.50000E+01 1.76448E+00
 2.60000E+01 1.69133E+00
 2.70000E+01 1.64203E+00
 2.80000E+01 1.58589E+00
 2.90000E+01 1.51833E+00
 3.00000E+01 1.46832E+00
