# n + 208Pb: Gamma-ray intensity - 208Pb: Level 21 --> Level 14 - gamma energy    0.178256
# E-initial  =   4.358670 E-final=   4.180414
# E-threshold= 4.37981E+00
# # energies =    67
#    E           xs
 1.00000E-11 0.00000E+00
 2.53000E-08 0.00000E+00
 2.00000E-07 0.00000E+00
 1.00000E-06 0.00000E+00
 1.00000E-03 0.00000E+00
 2.00000E-03 0.00000E+00
 5.00000E-03 0.00000E+00
 1.00000E-02 0.00000E+00
 2.00000E-02 0.00000E+00
 5.00000E-02 0.00000E+00
 1.00000E-01 0.00000E+00
 2.00000E-01 0.00000E+00
 3.00000E-01 0.00000E+00
 4.00000E-01 0.00000E+00
 5.00000E-01 0.00000E+00
 7.50000E-01 0.00000E+00
 1.00000E+00 0.00000E+00
 1.20000E+00 0.00000E+00
 1.40000E+00 0.00000E+00
 1.60000E+00 0.00000E+00
 1.80000E+00 0.00000E+00
 2.00000E+00 0.00000E+00
 2.20000E+00 0.00000E+00
 2.40000E+00 0.00000E+00
 2.60000E+00 0.00000E+00
 2.80000E+00 0.00000E+00
 3.00000E+00 0.00000E+00
 3.20000E+00 0.00000E+00
 3.40000E+00 0.00000E+00
 3.60000E+00 0.00000E+00
 3.80000E+00 0.00000E+00
 4.00000E+00 0.00000E+00
 4.20000E+00 0.00000E+00
 4.40000E+00 1.42391E-01
 4.60000E+00 5.05645E-01
 4.80000E+00 7.16137E-01
 5.00000E+00 8.11026E-01
 5.50000E+00 7.84853E-01
 6.00000E+00 6.93505E-01
 6.50000E+00 6.25415E-01
 7.00000E+00 5.72977E-01
 7.50000E+00 5.38195E-01
 8.00000E+00 4.88616E-01
 8.50000E+00 4.10687E-01
 9.00000E+00 3.24792E-01
 9.50000E+00 2.41873E-01
 1.00000E+01 1.73947E-01
 1.10000E+01 8.64818E-02
 1.20000E+01 4.80468E-02
 1.30000E+01 3.17651E-02
 1.40000E+01 2.48973E-02
 1.50000E+01 2.15368E-02
 1.60000E+01 1.93991E-02
 1.70000E+01 1.82955E-02
 1.80000E+01 1.68946E-02
 1.90000E+01 1.57653E-02
 2.00000E+01 1.48615E-02
 2.10000E+01 1.41027E-02
 2.20000E+01 1.32645E-02
 2.30000E+01 1.26244E-02
 2.40000E+01 1.19304E-02
 2.50000E+01 1.11262E-02
 2.60000E+01 1.04935E-02
 2.70000E+01 1.00824E-02
 2.80000E+01 9.54127E-03
 2.90000E+01 9.16067E-03
 3.00000E+01 8.79989E-03
