# n + 208Pb: Gamma-ray intensity - 208Pb: Level 18 --> Level  1 - gamma energy    1.647350
# E-initial  =   4.261870 E-final=   2.614520
# E-threshold= 4.28254E+00
# # energies = 67
#    E         xs
 1.000E-11 0.00000E+00
 2.530E-08 0.00000E+00
 2.000E-07 0.00000E+00
 1.000E-06 0.00000E+00
 1.000E-03 0.00000E+00
 2.000E-03 0.00000E+00
 5.000E-03 0.00000E+00
 1.000E-02 0.00000E+00
 2.000E-02 0.00000E+00
 5.000E-02 0.00000E+00
 1.000E-01 0.00000E+00
 2.000E-01 0.00000E+00
 3.000E-01 0.00000E+00
 4.000E-01 0.00000E+00
 5.000E-01 0.00000E+00
 7.500E-01 0.00000E+00
 1.000E+00 0.00000E+00
 1.200E+00 0.00000E+00
 1.400E+00 0.00000E+00
 1.600E+00 0.00000E+00
 1.800E+00 0.00000E+00
 2.000E+00 0.00000E+00
 2.200E+00 0.00000E+00
 2.400E+00 0.00000E+00
 2.600E+00 0.00000E+00
 2.800E+00 0.00000E+00
 3.000E+00 0.00000E+00
 3.200E+00 0.00000E+00
 3.400E+00 0.00000E+00
 3.600E+00 0.00000E+00
 3.800E+00 0.00000E+00
 4.000E+00 0.00000E+00
 4.200E+00 0.00000E+00
 4.400E+00 1.50613E+01
 4.600E+00 2.60977E+01
 4.800E+00 3.25358E+01
 5.000E+00 3.49795E+01
 5.500E+00 3.32867E+01
 6.000E+00 2.99216E+01
 6.500E+00 2.72233E+01
 7.000E+00 2.51075E+01
 7.500E+00 2.37082E+01
 8.000E+00 2.17499E+01
 8.500E+00 1.86972E+01
 9.000E+00 1.52537E+01
 9.500E+00 1.17861E+01
 1.000E+01 8.81922E+00
 1.100E+01 4.74115E+00
 1.200E+01 2.77392E+00
 1.300E+01 1.86381E+00
 1.400E+01 1.45805E+00
 1.500E+01 1.25295E+00
 1.600E+01 1.13086E+00
 1.700E+01 1.05703E+00
 1.800E+01 9.79275E-01
 1.900E+01 9.13892E-01
 2.000E+01 8.64968E-01
 2.100E+01 8.18117E-01
 2.200E+01 7.71809E-01
 2.300E+01 7.34615E-01
 2.400E+01 6.94994E-01
 2.500E+01 6.51150E-01
 2.600E+01 6.11055E-01
 2.700E+01 5.87658E-01
 2.800E+01 5.65881E-01
 2.900E+01 5.46964E-01
 3.000E+01 5.27879E-01
