# n + 208Pb: Gamma-ray intensity - 208Pb: Level 20 --> Level  2 - gamma energy    1.126240
# E-initial  =   4.323950 E-final=   3.197710
# E-threshold= 4.34492E+00
# # energies = 67
#    E         xs
 1.000E-11 0.00000E+00
 2.530E-08 0.00000E+00
 2.000E-07 0.00000E+00
 1.000E-06 0.00000E+00
 1.000E-03 0.00000E+00
 2.000E-03 0.00000E+00
 5.000E-03 0.00000E+00
 1.000E-02 0.00000E+00
 2.000E-02 0.00000E+00
 5.000E-02 0.00000E+00
 1.000E-01 0.00000E+00
 2.000E-01 0.00000E+00
 3.000E-01 0.00000E+00
 4.000E-01 0.00000E+00
 5.000E-01 0.00000E+00
 7.500E-01 0.00000E+00
 1.000E+00 0.00000E+00
 1.200E+00 0.00000E+00
 1.400E+00 0.00000E+00
 1.600E+00 0.00000E+00
 1.800E+00 0.00000E+00
 2.000E+00 0.00000E+00
 2.200E+00 0.00000E+00
 2.400E+00 0.00000E+00
 2.600E+00 0.00000E+00
 2.800E+00 0.00000E+00
 3.000E+00 0.00000E+00
 3.200E+00 0.00000E+00
 3.400E+00 0.00000E+00
 3.600E+00 0.00000E+00
 3.800E+00 0.00000E+00
 4.000E+00 0.00000E+00
 4.200E+00 0.00000E+00
 4.400E+00 1.00474E+01
 4.600E+00 3.90622E+01
 4.800E+00 5.58448E+01
 5.000E+00 6.49957E+01
 5.500E+00 8.01899E+01
 6.000E+00 9.32817E+01
 6.500E+00 9.76537E+01
 7.000E+00 9.56373E+01
 7.500E+00 9.29301E+01
 8.000E+00 8.70795E+01
 8.500E+00 7.66841E+01
 9.000E+00 6.46769E+01
 9.500E+00 5.23089E+01
 1.000E+01 4.16807E+01
 1.100E+01 2.68178E+01
 1.200E+01 1.95423E+01
 1.300E+01 1.61236E+01
 1.400E+01 1.44472E+01
 1.500E+01 1.33846E+01
 1.600E+01 1.25460E+01
 1.700E+01 1.19162E+01
 1.800E+01 1.12612E+01
 1.900E+01 1.06990E+01
 2.000E+01 1.01815E+01
 2.100E+01 9.72373E+00
 2.200E+01 9.26739E+00
 2.300E+01 8.89231E+00
 2.400E+01 8.54661E+00
 2.500E+01 8.14528E+00
 2.600E+01 7.77499E+00
 2.700E+01 7.52025E+00
 2.800E+01 7.29655E+00
 2.900E+01 7.08167E+00
 3.000E+01 6.87784E+00
