# n + 208Pb: Gamma-ray intensity - 208Pb: Level 12 --> Level  4 - gamma energy    0.416900
# E-initial  =   4.125350 E-final=   3.708450
# E-threshold= 4.14536E+00
# # energies = 67
#    E         xs
 1.000E-11 0.00000E+00
 2.530E-08 0.00000E+00
 2.000E-07 0.00000E+00
 1.000E-06 0.00000E+00
 1.000E-03 0.00000E+00
 2.000E-03 0.00000E+00
 5.000E-03 0.00000E+00
 1.000E-02 0.00000E+00
 2.000E-02 0.00000E+00
 5.000E-02 0.00000E+00
 1.000E-01 0.00000E+00
 2.000E-01 0.00000E+00
 3.000E-01 0.00000E+00
 4.000E-01 0.00000E+00
 5.000E-01 0.00000E+00
 7.500E-01 0.00000E+00
 1.000E+00 0.00000E+00
 1.200E+00 0.00000E+00
 1.400E+00 0.00000E+00
 1.600E+00 0.00000E+00
 1.800E+00 0.00000E+00
 2.000E+00 0.00000E+00
 2.200E+00 0.00000E+00
 2.400E+00 0.00000E+00
 2.600E+00 0.00000E+00
 2.800E+00 0.00000E+00
 3.000E+00 0.00000E+00
 3.200E+00 0.00000E+00
 3.400E+00 0.00000E+00
 3.600E+00 0.00000E+00
 3.800E+00 0.00000E+00
 4.000E+00 0.00000E+00
 4.200E+00 7.36901E-01
 4.400E+00 1.66139E+00
 4.600E+00 2.18314E+00
 4.800E+00 2.46259E+00
 5.000E+00 2.56223E+00
 5.500E+00 2.53070E+00
 6.000E+00 2.44573E+00
 6.500E+00 2.38107E+00
 7.000E+00 2.35421E+00
 7.500E+00 2.37127E+00
 8.000E+00 2.35584E+00
 8.500E+00 2.22200E+00
 9.000E+00 1.96958E+00
 9.500E+00 1.66770E+00
 1.000E+01 1.37124E+00
 1.100E+01 9.13632E-01
 1.200E+01 6.67501E-01
 1.300E+01 5.47099E-01
 1.400E+01 4.85374E-01
 1.500E+01 4.47386E-01
 1.600E+01 4.19792E-01
 1.700E+01 3.99170E-01
 1.800E+01 3.80372E-01
 1.900E+01 3.64222E-01
 2.000E+01 3.50109E-01
 2.100E+01 3.36060E-01
 2.200E+01 3.22206E-01
 2.300E+01 3.09104E-01
 2.400E+01 2.96554E-01
 2.500E+01 2.84076E-01
 2.600E+01 2.72653E-01
 2.700E+01 2.63794E-01
 2.800E+01 2.55465E-01
 2.900E+01 2.47649E-01
 3.000E+01 2.39906E-01
