# n + 208Pb: Gamma-ray intensity - 208Pb: Level 22 --> Level 12 - gamma energy    0.257940
# E-initial  =   4.383290 E-final=   4.125350
# E-threshold= 4.40455E+00
# # energies = 67
#    E         xs
 1.000E-11 0.00000E+00
 2.530E-08 0.00000E+00
 2.000E-07 0.00000E+00
 1.000E-06 0.00000E+00
 1.000E-03 0.00000E+00
 2.000E-03 0.00000E+00
 5.000E-03 0.00000E+00
 1.000E-02 0.00000E+00
 2.000E-02 0.00000E+00
 5.000E-02 0.00000E+00
 1.000E-01 0.00000E+00
 2.000E-01 0.00000E+00
 3.000E-01 0.00000E+00
 4.000E-01 0.00000E+00
 5.000E-01 0.00000E+00
 7.500E-01 0.00000E+00
 1.000E+00 0.00000E+00
 1.200E+00 0.00000E+00
 1.400E+00 0.00000E+00
 1.600E+00 0.00000E+00
 1.800E+00 0.00000E+00
 2.000E+00 0.00000E+00
 2.200E+00 0.00000E+00
 2.400E+00 0.00000E+00
 2.600E+00 0.00000E+00
 2.800E+00 0.00000E+00
 3.000E+00 0.00000E+00
 3.200E+00 0.00000E+00
 3.400E+00 0.00000E+00
 3.600E+00 0.00000E+00
 3.800E+00 0.00000E+00
 4.000E+00 0.00000E+00
 4.200E+00 0.00000E+00
 4.400E+00 0.00000E+00
 4.600E+00 8.82842E-02
 4.800E+00 1.36991E-01
 5.000E+00 1.68566E-01
 5.500E+00 1.96838E-01
 6.000E+00 2.06759E-01
 6.500E+00 2.18740E-01
 7.000E+00 2.31919E-01
 7.500E+00 2.47655E-01
 8.000E+00 2.62960E-01
 8.500E+00 2.67946E-01
 9.000E+00 2.51917E-01
 9.500E+00 2.19904E-01
 1.000E+01 1.80206E-01
 1.100E+01 1.08440E-01
 1.200E+01 6.41607E-02
 1.300E+01 4.24072E-02
 1.400E+01 3.21866E-02
 1.500E+01 2.74244E-02
 1.600E+01 2.48971E-02
 1.700E+01 2.33908E-02
 1.800E+01 2.18216E-02
 1.900E+01 2.04620E-02
 2.000E+01 1.95702E-02
 2.100E+01 1.86052E-02
 2.200E+01 1.76180E-02
 2.300E+01 1.68700E-02
 2.400E+01 1.59765E-02
 2.500E+01 1.50302E-02
 2.600E+01 1.42063E-02
 2.700E+01 1.34866E-02
 2.800E+01 1.29437E-02
 2.900E+01 1.24703E-02
 3.000E+01 1.19984E-02
