# n + 208Pb: Gamma-ray intensity - 208Pb: Level 20 --> Level  3 - gamma energy    0.754890
# E-initial  =   4.230000 E-final=   3.475110
# E-threshold= 4.25052E+00
# # energies = 66
#    E         xs
 1.000E-11 0.00000E+00
 2.530E-08 0.00000E+00
 1.000E-06 0.00000E+00
 1.000E-03 0.00000E+00
 2.000E-03 0.00000E+00
 5.000E-03 0.00000E+00
 1.000E-02 0.00000E+00
 2.000E-02 0.00000E+00
 5.000E-02 0.00000E+00
 1.000E-01 0.00000E+00
 2.000E-01 0.00000E+00
 3.000E-01 0.00000E+00
 4.000E-01 0.00000E+00
 5.000E-01 0.00000E+00
 7.500E-01 0.00000E+00
 1.000E+00 0.00000E+00
 1.200E+00 0.00000E+00
 1.400E+00 0.00000E+00
 1.600E+00 0.00000E+00
 1.800E+00 0.00000E+00
 2.000E+00 0.00000E+00
 2.200E+00 0.00000E+00
 2.400E+00 0.00000E+00
 2.600E+00 0.00000E+00
 2.800E+00 0.00000E+00
 3.000E+00 0.00000E+00
 3.200E+00 0.00000E+00
 3.400E+00 0.00000E+00
 3.600E+00 0.00000E+00
 3.800E+00 0.00000E+00
 4.000E+00 0.00000E+00
 4.200E+00 0.00000E+00
 4.400E+00 1.83838E+01
 4.600E+00 2.78046E+01
 4.800E+00 3.15815E+01
 5.000E+00 3.17850E+01
 5.500E+00 2.74007E+01
 6.000E+00 2.36296E+01
 6.500E+00 2.13872E+01
 7.000E+00 2.00637E+01
 7.500E+00 1.94770E+01
 8.000E+00 1.82601E+01
 8.500E+00 1.57476E+01
 9.000E+00 1.26411E+01
 9.500E+00 9.69742E+00
 1.000E+01 7.18498E+00
 1.100E+01 3.93237E+00
 1.200E+01 2.47701E+00
 1.300E+01 1.84389E+00
 1.400E+01 1.56343E+00
 1.500E+01 1.41752E+00
 1.600E+01 1.32386E+00
 1.700E+01 1.27012E+00
 1.800E+01 1.20605E+00
 1.900E+01 1.14848E+00
 2.000E+01 1.10173E+00
 2.100E+01 1.05979E+00
 2.200E+01 1.01611E+00
 2.300E+01 9.76710E-01
 2.400E+01 9.29998E-01
 2.500E+01 8.96271E-01
 2.600E+01 8.58867E-01
 2.700E+01 8.24624E-01
 2.800E+01 7.95383E-01
 2.900E+01 7.66560E-01
 3.000E+01 7.34679E-01
