# n + 208Pb: Gamma-ray intensity - 208Pb: Level 21 --> Level 14 - gamma energy    0.178256
# E-initial  =   4.358670 E-final=   4.180414
# E-threshold= 4.37981E+00
# # energies =    67
#    E           xs
 1.00000E-11 0.00000E+00
 2.53000E-08 0.00000E+00
 2.00000E-07 0.00000E+00
 1.00000E-06 0.00000E+00
 1.00000E-03 0.00000E+00
 2.00000E-03 0.00000E+00
 5.00000E-03 0.00000E+00
 1.00000E-02 0.00000E+00
 2.00000E-02 0.00000E+00
 5.00000E-02 0.00000E+00
 1.00000E-01 0.00000E+00
 2.00000E-01 0.00000E+00
 3.00000E-01 0.00000E+00
 4.00000E-01 0.00000E+00
 5.00000E-01 0.00000E+00
 7.50000E-01 0.00000E+00
 1.00000E+00 0.00000E+00
 1.20000E+00 0.00000E+00
 1.40000E+00 0.00000E+00
 1.60000E+00 0.00000E+00
 1.80000E+00 0.00000E+00
 2.00000E+00 0.00000E+00
 2.20000E+00 0.00000E+00
 2.40000E+00 0.00000E+00
 2.60000E+00 0.00000E+00
 2.80000E+00 0.00000E+00
 3.00000E+00 0.00000E+00
 3.20000E+00 0.00000E+00
 3.40000E+00 0.00000E+00
 3.60000E+00 0.00000E+00
 3.80000E+00 0.00000E+00
 4.00000E+00 0.00000E+00
 4.20000E+00 0.00000E+00
 4.40000E+00 1.42391E-01
 4.60000E+00 5.05645E-01
 4.80000E+00 7.16137E-01
 5.00000E+00 8.11023E-01
 5.50000E+00 7.84840E-01
 6.00000E+00 6.93487E-01
 6.50000E+00 6.25397E-01
 7.00000E+00 5.72962E-01
 7.50000E+00 5.38185E-01
 8.00000E+00 4.88606E-01
 8.50000E+00 4.10676E-01
 9.00000E+00 3.24779E-01
 9.50000E+00 2.41859E-01
 1.00000E+01 1.73935E-01
 1.10000E+01 8.64740E-02
 1.20000E+01 4.80430E-02
 1.30000E+01 3.17633E-02
 1.40000E+01 2.48965E-02
 1.50000E+01 2.15365E-02
 1.60000E+01 1.93990E-02
 1.70000E+01 1.82954E-02
 1.80000E+01 1.68945E-02
 1.90000E+01 1.57578E-02
 2.00000E+01 1.48613E-02
 2.10000E+01 1.41025E-02
 2.20000E+01 1.32642E-02
 2.30000E+01 1.26241E-02
 2.40000E+01 1.19301E-02
 2.50000E+01 1.11259E-02
 2.60000E+01 1.04931E-02
 2.70000E+01 1.00820E-02
 2.80000E+01 9.54093E-03
 2.90000E+01 9.16029E-03
 3.00000E+01 8.79951E-03
