# n + 208Pb: Gamma-ray intensity - 209Pb: Level  2 --> Level  1 - gamma energy    0.644200
# E-initial  =   1.423000 E-final=   0.778800
# E-threshold= 0.00000E+00
# # energies = 67
#    E         xs
 1.000E-11 0.00000E+00
 2.530E-08 0.00000E+00
 2.000E-07 0.00000E+00
 1.000E-06 0.00000E+00
 1.000E-03 0.00000E+00
 2.000E-03 0.00000E+00
 5.000E-03 0.00000E+00
 1.000E-02 0.00000E+00
 2.000E-02 0.00000E+00
 5.000E-02 1.85769E-10
 1.000E-01 4.56125E-09
 2.000E-01 5.33338E-08
 3.000E-01 4.21179E-06
 4.000E-01 1.19278E-05
 5.000E-01 2.21926E-05
 7.500E-01 5.21866E-05
 1.000E+00 2.55186E-04
 1.200E+00 4.63501E-04
 1.400E+00 8.79829E-04
 1.600E+00 1.41083E-03
 1.800E+00 2.16669E-03
 2.000E+00 3.34782E-03
 2.200E+00 4.91963E-03
 2.400E+00 7.08688E-03
 2.600E+00 1.00335E-02
 2.800E+00 1.29373E-02
 3.000E+00 1.47387E-02
 3.200E+00 1.66674E-02
 3.400E+00 8.48848E-03
 3.600E+00 6.57918E-03
 3.800E+00 5.50676E-03
 4.000E+00 4.28714E-03
 4.200E+00 2.36793E-03
 4.400E+00 1.85991E-03
 4.600E+00 1.65197E-03
 4.800E+00 2.11909E-03
 5.000E+00 2.11873E-03
 5.500E+00 2.59494E-03
 6.000E+00 3.32693E-03
 6.500E+00 4.47354E-03
 7.000E+00 6.17918E-03
 7.500E+00 8.77197E-03
 8.000E+00 1.26942E-02
 8.500E+00 1.85295E-02
 9.000E+00 2.52272E-02
 9.500E+00 2.96822E-02
 1.000E+01 3.06648E-02
 1.100E+01 3.01773E-02
 1.200E+01 3.24539E-02
 1.300E+01 3.53629E-02
 1.400E+01 3.48710E-02
 1.500E+01 3.06289E-02
 1.600E+01 2.47050E-02
 1.700E+01 2.01243E-02
 1.800E+01 1.69417E-02
 1.900E+01 1.48931E-02
 2.000E+01 1.36631E-02
 2.100E+01 1.25202E-02
 2.200E+01 1.15918E-02
 2.300E+01 1.07086E-02
 2.400E+01 9.80767E-03
 2.500E+01 9.07806E-03
 2.600E+01 8.42882E-03
 2.700E+01 7.91123E-03
 2.800E+01 7.52217E-03
 2.900E+01 7.20483E-03
 3.000E+01 6.93716E-03
