# n + 208Pb: Gamma-ray intensity - 208Pb: Level 17 --> Level  2 - gamma energy    0.982670
# E-initial  =   4.180410 E-final=   3.197740
# E-threshold= 4.20068E+00
# # energies = 67
#    E         xs
 1.000E-11 0.00000E+00
 2.530E-08 0.00000E+00
 2.000E-07 0.00000E+00
 1.000E-06 0.00000E+00
 1.000E-03 0.00000E+00
 2.000E-03 0.00000E+00
 5.000E-03 0.00000E+00
 1.000E-02 0.00000E+00
 2.000E-02 0.00000E+00
 5.000E-02 0.00000E+00
 1.000E-01 0.00000E+00
 2.000E-01 0.00000E+00
 3.000E-01 0.00000E+00
 4.000E-01 0.00000E+00
 5.000E-01 0.00000E+00
 7.500E-01 0.00000E+00
 1.000E+00 0.00000E+00
 1.200E+00 0.00000E+00
 1.400E+00 0.00000E+00
 1.600E+00 0.00000E+00
 1.800E+00 0.00000E+00
 2.000E+00 0.00000E+00
 2.200E+00 0.00000E+00
 2.400E+00 0.00000E+00
 2.600E+00 0.00000E+00
 2.800E+00 0.00000E+00
 3.000E+00 0.00000E+00
 3.200E+00 0.00000E+00
 3.400E+00 0.00000E+00
 3.600E+00 0.00000E+00
 3.800E+00 0.00000E+00
 4.000E+00 0.00000E+00
 4.200E+00 0.00000E+00
 4.400E+00 3.22740E+01
 4.600E+00 4.55079E+01
 4.800E+00 5.18927E+01
 5.000E+00 5.37650E+01
 5.500E+00 5.06881E+01
 6.000E+00 4.64316E+01
 6.500E+00 4.34966E+01
 7.000E+00 4.18189E+01
 7.500E+00 4.15121E+01
 8.000E+00 4.12046E+01
 8.500E+00 3.90448E+01
 9.000E+00 3.44326E+01
 9.500E+00 2.87210E+01
 1.000E+01 2.29711E+01
 1.100E+01 1.38621E+01
 1.200E+01 8.74446E+00
 1.300E+01 6.24824E+00
 1.400E+01 5.02255E+00
 1.500E+01 4.40304E+00
 1.600E+01 4.02416E+00
 1.700E+01 3.82197E+00
 1.800E+01 3.60895E+00
 1.900E+01 3.43924E+00
 2.000E+01 3.28877E+00
 2.100E+01 3.16531E+00
 2.200E+01 3.08172E+00
 2.300E+01 2.96708E+00
 2.400E+01 2.84408E+00
 2.500E+01 2.74655E+00
 2.600E+01 2.62378E+00
 2.700E+01 2.53803E+00
 2.800E+01 2.45089E+00
 2.900E+01 2.37111E+00
 3.000E+01 2.29052E+00
