# n + 208Pb: Gamma-ray intensity - 209Pb: Level  3 --> Level  0 - gamma energy    1.567090
# E-initial  =   1.567090 E-final=   0.000000
# E-threshold= 0.00000E+00
# # energies = 67
#    E         xs
 1.000E-11 0.00000E+00
 2.530E-08 0.00000E+00
 2.000E-07 0.00000E+00
 1.000E-06 3.74340E+02
 1.000E-03 1.97072E+00
 2.000E-03 1.16276E+00
 5.000E-03 6.33270E-01
 1.000E-02 3.87038E-01
 2.000E-02 2.20561E-01
 5.000E-02 1.16580E-01
 1.000E-01 7.96022E-02
 2.000E-01 5.75562E-02
 3.000E-01 5.00807E-02
 4.000E-01 4.70668E-02
 5.000E-01 4.62645E-02
 7.500E-01 4.92572E-02
 1.000E+00 5.58895E-02
 1.200E+00 6.30019E-02
 1.400E+00 7.26504E-02
 1.600E+00 8.21320E-02
 1.800E+00 9.55140E-02
 2.000E+00 1.11078E-01
 2.200E+00 1.29140E-01
 2.400E+00 1.50569E-01
 2.600E+00 1.82948E-01
 2.800E+00 1.53877E-01
 3.000E+00 1.54380E-01
 3.200E+00 1.70694E-01
 3.400E+00 1.80382E-01
 3.600E+00 1.98957E-01
 3.800E+00 2.10097E-01
 4.000E+00 2.31900E-01
 4.200E+00 2.22745E-01
 4.400E+00 1.69816E-01
 4.600E+00 1.30763E-01
 4.800E+00 1.03268E-01
 5.000E+00 8.20258E-02
 5.500E+00 6.04668E-02
 6.000E+00 5.11111E-02
 6.500E+00 5.34641E-02
 7.000E+00 6.35614E-02
 7.500E+00 8.87278E-02
 8.000E+00 1.35112E-01
 8.500E+00 2.16775E-01
 9.000E+00 3.49585E-01
 9.500E+00 5.16314E-01
 1.000E+01 6.35418E-01
 1.100E+01 5.95146E-01
 1.200E+01 4.13917E-01
 1.300E+01 2.61596E-01
 1.400E+01 1.94469E-01
 1.500E+01 1.57220E-01
 1.600E+01 1.33604E-01
 1.700E+01 1.16485E-01
 1.800E+01 9.86703E-02
 1.900E+01 8.97619E-02
 2.000E+01 8.33369E-02
 2.100E+01 7.94118E-02
 2.200E+01 7.58556E-02
 2.300E+01 7.35527E-02
 2.400E+01 7.08750E-02
 2.500E+01 6.91138E-02
 2.600E+01 6.76256E-02
 2.700E+01 6.33501E-02
 2.800E+01 6.02433E-02
 2.900E+01 5.88730E-02
 3.000E+01 5.79650E-02
