# n + 208Pb: Gamma-ray intensity - 208Pb: Level 20 --> Level  3 - gamma energy    0.848868
# E-initial  =   4.323946 E-final=   3.475078
# E-threshold= 4.34492E+00
# # energies =    67
#    E           xs
 1.00000E-11 0.00000E+00
 2.53000E-08 0.00000E+00
 2.00000E-07 0.00000E+00
 1.00000E-06 0.00000E+00
 1.00000E-03 0.00000E+00
 2.00000E-03 0.00000E+00
 5.00000E-03 0.00000E+00
 1.00000E-02 0.00000E+00
 2.00000E-02 0.00000E+00
 5.00000E-02 0.00000E+00
 1.00000E-01 0.00000E+00
 2.00000E-01 0.00000E+00
 3.00000E-01 0.00000E+00
 4.00000E-01 0.00000E+00
 5.00000E-01 0.00000E+00
 7.50000E-01 0.00000E+00
 1.00000E+00 0.00000E+00
 1.20000E+00 0.00000E+00
 1.40000E+00 0.00000E+00
 1.60000E+00 0.00000E+00
 1.80000E+00 0.00000E+00
 2.00000E+00 0.00000E+00
 2.20000E+00 0.00000E+00
 2.40000E+00 0.00000E+00
 2.60000E+00 0.00000E+00
 2.80000E+00 0.00000E+00
 3.00000E+00 0.00000E+00
 3.20000E+00 0.00000E+00
 3.40000E+00 0.00000E+00
 3.60000E+00 0.00000E+00
 3.80000E+00 0.00000E+00
 4.00000E+00 0.00000E+00
 4.20000E+00 0.00000E+00
 4.40000E+00 2.43267E-01
 4.60000E+00 9.45699E-01
 4.80000E+00 1.35157E+00
 5.00000E+00 1.56972E+00
 5.50000E+00 1.91837E+00
 6.00000E+00 2.20734E+00
 6.50000E+00 2.28774E+00
 7.00000E+00 2.22357E+00
 7.50000E+00 2.14576E+00
 8.00000E+00 1.98397E+00
 8.50000E+00 1.70588E+00
 9.00000E+00 1.39708E+00
 9.50000E+00 1.09666E+00
 1.00000E+01 8.50664E-01
 1.10000E+01 5.30569E-01
 1.20000E+01 3.88475E-01
 1.30000E+01 3.26941E-01
 1.40000E+01 2.97358E-01
 1.50000E+01 2.77731E-01
 1.60000E+01 2.61300E-01
 1.70000E+01 2.49037E-01
 1.80000E+01 2.35518E-01
 1.90000E+01 2.23886E-01
 2.00000E+01 2.13103E-01
 2.10000E+01 2.03731E-01
 2.20000E+01 1.94299E-01
 2.30000E+01 1.86546E-01
 2.40000E+01 1.79444E-01
 2.50000E+01 1.71399E-01
 2.60000E+01 1.64976E-01
 2.70000E+01 1.59889E-01
 2.80000E+01 1.54893E-01
 2.90000E+01 1.50171E-01
 3.00000E+01 1.45742E-01
