# n + 208Pb: Gamma-ray intensity - 208Pb: Level 10 --> Level  1 - gamma energy    1.436610
# E-initial  =   4.051130 E-final=   2.614520
# E-threshold= 4.07078E+00
# # energies = 67
#    E         xs
 1.000E-11 0.00000E+00
 2.530E-08 0.00000E+00
 2.000E-07 0.00000E+00
 1.000E-06 0.00000E+00
 1.000E-03 0.00000E+00
 2.000E-03 0.00000E+00
 5.000E-03 0.00000E+00
 1.000E-02 0.00000E+00
 2.000E-02 0.00000E+00
 5.000E-02 0.00000E+00
 1.000E-01 0.00000E+00
 2.000E-01 0.00000E+00
 3.000E-01 0.00000E+00
 4.000E-01 0.00000E+00
 5.000E-01 0.00000E+00
 7.500E-01 0.00000E+00
 1.000E+00 0.00000E+00
 1.200E+00 0.00000E+00
 1.400E+00 0.00000E+00
 1.600E+00 0.00000E+00
 1.800E+00 0.00000E+00
 2.000E+00 0.00000E+00
 2.200E+00 0.00000E+00
 2.400E+00 0.00000E+00
 2.600E+00 0.00000E+00
 2.800E+00 0.00000E+00
 3.000E+00 0.00000E+00
 3.200E+00 0.00000E+00
 3.400E+00 0.00000E+00
 3.600E+00 0.00000E+00
 3.800E+00 0.00000E+00
 4.000E+00 0.00000E+00
 4.200E+00 5.15091E+01
 4.400E+00 8.13709E+01
 4.600E+00 9.31107E+01
 4.800E+00 9.57444E+01
 5.000E+00 9.29669E+01
 5.500E+00 8.17263E+01
 6.000E+00 7.32011E+01
 6.500E+00 6.69768E+01
 7.000E+00 6.26094E+01
 7.500E+00 5.95852E+01
 8.000E+00 5.32890E+01
 8.500E+00 4.40059E+01
 9.000E+00 3.50373E+01
 9.500E+00 2.65686E+01
 1.000E+01 1.98826E+01
 1.100E+01 1.12534E+01
 1.200E+01 7.20763E+00
 1.300E+01 5.30055E+00
 1.400E+01 4.45834E+00
 1.500E+01 3.97789E+00
 1.600E+01 3.64069E+00
 1.700E+01 3.45188E+00
 1.800E+01 3.21257E+00
 1.900E+01 3.01957E+00
 2.000E+01 2.87862E+00
 2.100E+01 2.75343E+00
 2.200E+01 2.58794E+00
 2.300E+01 2.48117E+00
 2.400E+01 2.37139E+00
 2.500E+01 2.21429E+00
 2.600E+01 2.10375E+00
 2.700E+01 2.03788E+00
 2.800E+01 1.97973E+00
 2.900E+01 1.90657E+00
 3.000E+01 1.84957E+00
