# n + 208Pb: Gamma-ray intensity - 209Pb: Level  7 --> Level  0 - gamma energy    2.424000
# E-initial  =   2.424000 E-final=   0.000000
# E-threshold= 0.00000E+00
# # energies = 67
#    E         xs
 1.000E-11 0.00000E+00
 2.530E-08 0.00000E+00
 2.000E-07 0.00000E+00
 1.000E-06 9.11241E-03
 1.000E-03 6.07783E-03
 2.000E-03 7.78684E-03
 5.000E-03 9.26810E-03
 1.000E-02 7.21013E-03
 2.000E-02 4.52073E-03
 5.000E-02 2.46668E-03
 1.000E-01 1.83648E-03
 2.000E-01 1.89160E-03
 3.000E-01 2.02686E-03
 4.000E-01 2.11503E-03
 5.000E-01 2.21281E-03
 7.500E-01 2.57270E-03
 1.000E+00 3.10774E-03
 1.200E+00 3.67798E-03
 1.400E+00 4.36025E-03
 1.600E+00 5.21459E-03
 1.800E+00 6.24531E-03
 2.000E+00 7.47686E-03
 2.200E+00 9.02867E-03
 2.400E+00 1.07968E-02
 2.600E+00 1.28845E-02
 2.800E+00 9.23322E-03
 3.000E+00 8.73966E-03
 3.200E+00 9.12655E-03
 3.400E+00 8.58403E-03
 3.600E+00 8.44661E-03
 3.800E+00 8.26030E-03
 4.000E+00 8.28544E-03
 4.200E+00 7.43624E-03
 4.400E+00 6.10850E-03
 4.600E+00 5.30035E-03
 4.800E+00 5.11490E-03
 5.000E+00 4.75313E-03
 5.500E+00 3.92088E-03
 6.000E+00 3.46584E-03
 6.500E+00 3.33753E-03
 7.000E+00 3.58110E-03
 7.500E+00 4.10550E-03
 8.000E+00 5.25616E-03
 8.500E+00 7.22892E-03
 9.000E+00 1.04349E-02
 9.500E+00 1.54036E-02
 1.000E+01 2.10226E-02
 1.100E+01 2.42597E-02
 1.200E+01 1.74164E-02
 1.300E+01 1.16569E-02
 1.400E+01 8.92439E-03
 1.500E+01 7.21920E-03
 1.600E+01 5.96253E-03
 1.700E+01 5.54708E-03
 1.800E+01 4.97355E-03
 1.900E+01 4.91048E-03
 2.000E+01 4.74323E-03
 2.100E+01 4.16359E-03
 2.200E+01 3.98058E-03
 2.300E+01 3.77196E-03
 2.400E+01 3.38144E-03
 2.500E+01 3.16736E-03
 2.600E+01 2.78177E-03
 2.700E+01 2.61868E-03
 2.800E+01 2.42875E-03
 2.900E+01 2.26240E-03
 3.000E+01 2.16777E-03
