# n + 208Pb: Gamma-ray intensity - 208Pb: Level 16 --> Level  1 - gamma energy    1.615070
# E-initial  =   4.229590 E-final=   2.614520
# E-threshold= 4.25010E+00
# # energies = 67
#    E         xs
 1.000E-11 0.00000E+00
 2.530E-08 0.00000E+00
 2.000E-07 0.00000E+00
 1.000E-06 0.00000E+00
 1.000E-03 0.00000E+00
 2.000E-03 0.00000E+00
 5.000E-03 0.00000E+00
 1.000E-02 0.00000E+00
 2.000E-02 0.00000E+00
 5.000E-02 0.00000E+00
 1.000E-01 0.00000E+00
 2.000E-01 0.00000E+00
 3.000E-01 0.00000E+00
 4.000E-01 0.00000E+00
 5.000E-01 0.00000E+00
 7.500E-01 0.00000E+00
 1.000E+00 0.00000E+00
 1.200E+00 0.00000E+00
 1.400E+00 0.00000E+00
 1.600E+00 0.00000E+00
 1.800E+00 0.00000E+00
 2.000E+00 0.00000E+00
 2.200E+00 0.00000E+00
 2.400E+00 0.00000E+00
 2.600E+00 0.00000E+00
 2.800E+00 0.00000E+00
 3.000E+00 0.00000E+00
 3.200E+00 0.00000E+00
 3.400E+00 0.00000E+00
 3.600E+00 0.00000E+00
 3.800E+00 0.00000E+00
 4.000E+00 0.00000E+00
 4.200E+00 0.00000E+00
 4.400E+00 3.69643E+01
 4.600E+00 5.78809E+01
 4.800E+00 6.81493E+01
 5.000E+00 6.96431E+01
 5.500E+00 5.92355E+01
 6.000E+00 4.93352E+01
 6.500E+00 4.29094E+01
 7.000E+00 3.85901E+01
 7.500E+00 3.57539E+01
 8.000E+00 3.10760E+01
 8.500E+00 2.48885E+01
 9.000E+00 1.92677E+01
 9.500E+00 1.41845E+01
 1.000E+01 1.02728E+01
 1.100E+01 5.46356E+00
 1.200E+01 3.23289E+00
 1.300E+01 2.18208E+00
 1.400E+01 1.75161E+00
 1.500E+01 1.51786E+00
 1.600E+01 1.36752E+00
 1.700E+01 1.30977E+00
 1.800E+01 1.19810E+00
 1.900E+01 1.10680E+00
 2.000E+01 1.06038E+00
 2.100E+01 1.02063E+00
 2.200E+01 9.41371E-01
 2.300E+01 9.10248E-01
 2.400E+01 8.73044E-01
 2.500E+01 7.99112E-01
 2.600E+01 7.58397E-01
 2.700E+01 7.39334E-01
 2.800E+01 7.21587E-01
 2.900E+01 6.84047E-01
 3.000E+01 6.64511E-01
