# n + 208Pb: Gamma-ray intensity - 209Pb: Level  2 --> Level  1 - gamma energy    0.644200
# E-initial  =   1.423000 E-final=   0.778800
# E-threshold= 0.00000E+00
# # energies = 66
#    E         xs
 1.000E-11 0.00000E+00
 2.530E-08 0.00000E+00
 1.000E-06 0.00000E+00
 1.000E-03 0.00000E+00
 2.000E-03 0.00000E+00
 5.000E-03 0.00000E+00
 1.000E-02 0.00000E+00
 2.000E-02 0.00000E+00
 5.000E-02 0.00000E+00
 1.000E-01 0.00000E+00
 2.000E-01 0.00000E+00
 3.000E-01 0.00000E+00
 4.000E-01 0.00000E+00
 5.000E-01 0.00000E+00
 7.500E-01 0.00000E+00
 1.000E+00 3.32976E-04
 1.200E+00 5.30199E-04
 1.400E+00 9.24478E-04
 1.600E+00 1.41455E-03
 1.800E+00 2.08767E-03
 2.000E+00 3.13787E-03
 2.200E+00 4.43557E-03
 2.400E+00 6.13379E-03
 2.600E+00 8.33187E-03
 2.800E+00 1.02539E-02
 3.000E+00 1.11271E-02
 3.200E+00 1.19044E-02
 3.400E+00 5.47488E-03
 3.600E+00 3.76882E-03
 3.800E+00 2.91268E-03
 4.000E+00 2.10882E-03
 4.200E+00 9.92509E-04
 4.400E+00 1.09662E-03
 4.600E+00 1.07981E-03
 4.800E+00 1.18292E-03
 5.000E+00 1.17384E-03
 5.500E+00 1.54191E-03
 6.000E+00 2.13855E-03
 6.500E+00 3.10934E-03
 7.000E+00 4.72097E-03
 7.500E+00 7.43239E-03
 8.000E+00 1.20278E-02
 8.500E+00 1.92429E-02
 9.000E+00 2.79970E-02
 9.500E+00 3.40808E-02
 1.000E+01 3.49835E-02
 1.100E+01 3.28027E-02
 1.200E+01 3.49585E-02
 1.300E+01 3.77160E-02
 1.400E+01 3.75994E-02
 1.500E+01 3.32537E-02
 1.600E+01 2.65551E-02
 1.700E+01 2.13156E-02
 1.800E+01 1.80582E-02
 1.900E+01 1.59699E-02
 2.000E+01 1.46766E-02
 2.100E+01 1.38970E-02
 2.200E+01 1.32785E-02
 2.300E+01 1.26830E-02
 2.400E+01 1.20284E-02
 2.500E+01 1.17719E-02
 2.600E+01 1.13676E-02
 2.700E+01 1.08376E-02
 2.800E+01 1.05050E-02
 2.900E+01 1.03115E-02
 3.000E+01 1.00458E-02
