# n + 208Pb: Gamma-ray intensity - 208Pb: Level 20 --> Level  2 - gamma energy    1.126235
# E-initial  =   4.323946 E-final=   3.197711
# E-threshold= 4.34492E+00
# # energies =    67
#    E           xs
 1.00000E-11 0.00000E+00
 2.53000E-08 0.00000E+00
 2.00000E-07 0.00000E+00
 1.00000E-06 0.00000E+00
 1.00000E-03 0.00000E+00
 2.00000E-03 0.00000E+00
 5.00000E-03 0.00000E+00
 1.00000E-02 0.00000E+00
 2.00000E-02 0.00000E+00
 5.00000E-02 0.00000E+00
 1.00000E-01 0.00000E+00
 2.00000E-01 0.00000E+00
 3.00000E-01 0.00000E+00
 4.00000E-01 0.00000E+00
 5.00000E-01 0.00000E+00
 7.50000E-01 0.00000E+00
 1.00000E+00 0.00000E+00
 1.20000E+00 0.00000E+00
 1.40000E+00 0.00000E+00
 1.60000E+00 0.00000E+00
 1.80000E+00 0.00000E+00
 2.00000E+00 0.00000E+00
 2.20000E+00 0.00000E+00
 2.40000E+00 0.00000E+00
 2.60000E+00 0.00000E+00
 2.80000E+00 0.00000E+00
 3.00000E+00 0.00000E+00
 3.20000E+00 0.00000E+00
 3.40000E+00 0.00000E+00
 3.60000E+00 0.00000E+00
 3.80000E+00 0.00000E+00
 4.00000E+00 0.00000E+00
 4.20000E+00 0.00000E+00
 4.40000E+00 1.00499E+01
 4.60000E+00 3.90687E+01
 4.80000E+00 5.58362E+01
 5.00000E+00 6.48483E+01
 5.50000E+00 7.92515E+01
 6.00000E+00 9.11896E+01
 6.50000E+00 9.45105E+01
 7.00000E+00 9.18597E+01
 7.50000E+00 8.86451E+01
 8.00000E+00 8.19608E+01
 8.50000E+00 7.04721E+01
 9.00000E+00 5.77145E+01
 9.50000E+00 4.53031E+01
 1.00000E+01 3.51408E+01
 1.10000E+01 2.19178E+01
 1.20000E+01 1.60481E+01
 1.30000E+01 1.35064E+01
 1.40000E+01 1.22844E+01
 1.50000E+01 1.14736E+01
 1.60000E+01 1.07949E+01
 1.70000E+01 1.02882E+01
 1.80000E+01 9.72974E+00
 1.90000E+01 9.24874E+00
 2.00000E+01 8.80373E+00
 2.10000E+01 8.41658E+00
 2.20000E+01 8.02689E+00
 2.30000E+01 7.70662E+00
 2.40000E+01 7.41320E+00
 2.50000E+01 7.08084E+00
 2.60000E+01 6.81549E+00
 2.70000E+01 6.60534E+00
 2.80000E+01 6.39896E+00
 2.90000E+01 6.20386E+00
 3.00000E+01 6.02089E+00
