# n + 208Pb: Gamma-ray intensity - 208Pb: Level 15 --> Level  4 - gamma energy    0.497826
# E-initial  =   4.206277 E-final=   3.708451
# E-threshold= 4.22668E+00
# # energies =    67
#    E           xs
 1.00000E-11 0.00000E+00
 2.53000E-08 0.00000E+00
 2.00000E-07 0.00000E+00
 1.00000E-06 0.00000E+00
 1.00000E-03 0.00000E+00
 2.00000E-03 0.00000E+00
 5.00000E-03 0.00000E+00
 1.00000E-02 0.00000E+00
 2.00000E-02 0.00000E+00
 5.00000E-02 0.00000E+00
 1.00000E-01 0.00000E+00
 2.00000E-01 0.00000E+00
 3.00000E-01 0.00000E+00
 4.00000E-01 0.00000E+00
 5.00000E-01 0.00000E+00
 7.50000E-01 0.00000E+00
 1.00000E+00 0.00000E+00
 1.20000E+00 0.00000E+00
 1.40000E+00 0.00000E+00
 1.60000E+00 0.00000E+00
 1.80000E+00 0.00000E+00
 2.00000E+00 0.00000E+00
 2.20000E+00 0.00000E+00
 2.40000E+00 0.00000E+00
 2.60000E+00 0.00000E+00
 2.80000E+00 0.00000E+00
 3.00000E+00 0.00000E+00
 3.20000E+00 0.00000E+00
 3.40000E+00 0.00000E+00
 3.60000E+00 0.00000E+00
 3.80000E+00 0.00000E+00
 4.00000E+00 0.00000E+00
 4.20000E+00 0.00000E+00
 4.40000E+00 3.03392E+00
 4.60000E+00 4.53208E+00
 4.80000E+00 5.58743E+00
 5.00000E+00 6.27247E+00
 5.50000E+00 7.10200E+00
 6.00000E+00 7.68859E+00
 6.50000E+00 8.39488E+00
 7.00000E+00 9.22838E+00
 7.50000E+00 1.01839E+01
 8.00000E+00 1.10695E+01
 8.50000E+00 1.14138E+01
 9.00000E+00 1.07362E+01
 9.50000E+00 9.28303E+00
 1.00000E+01 7.47559E+00
 1.10000E+01 4.31560E+00
 1.20000E+01 2.46345E+00
 1.30000E+01 1.61966E+00
 1.40000E+01 1.25227E+00
 1.50000E+01 1.08702E+00
 1.60000E+01 9.96462E-01
 1.70000E+01 9.44833E-01
 1.80000E+01 8.80414E-01
 1.90000E+01 8.24170E-01
 2.00000E+01 7.87659E-01
 2.10000E+01 7.47567E-01
 2.20000E+01 7.06052E-01
 2.30000E+01 6.74015E-01
 2.40000E+01 6.37121E-01
 2.50000E+01 5.92429E-01
 2.60000E+01 5.60375E-01
 2.70000E+01 5.25941E-01
 2.80000E+01 4.98716E-01
 2.90000E+01 4.78036E-01
 3.00000E+01 4.58192E-01
