# n + 208Pb: Gamma-ray intensity - 208Pb: Level 21 --> Level  3 - gamma energy    0.883590
# E-initial  =   4.358670 E-final=   3.475080
# E-threshold= 4.37981E+00
# # energies = 67
#    E         xs
 1.000E-11 0.00000E+00
 2.530E-08 0.00000E+00
 2.000E-07 0.00000E+00
 1.000E-06 0.00000E+00
 1.000E-03 0.00000E+00
 2.000E-03 0.00000E+00
 5.000E-03 0.00000E+00
 1.000E-02 0.00000E+00
 2.000E-02 0.00000E+00
 5.000E-02 0.00000E+00
 1.000E-01 0.00000E+00
 2.000E-01 0.00000E+00
 3.000E-01 0.00000E+00
 4.000E-01 0.00000E+00
 5.000E-01 0.00000E+00
 7.500E-01 0.00000E+00
 1.000E+00 0.00000E+00
 1.200E+00 0.00000E+00
 1.400E+00 0.00000E+00
 1.600E+00 0.00000E+00
 1.800E+00 0.00000E+00
 2.000E+00 0.00000E+00
 2.200E+00 0.00000E+00
 2.400E+00 0.00000E+00
 2.600E+00 0.00000E+00
 2.800E+00 0.00000E+00
 3.000E+00 0.00000E+00
 3.200E+00 0.00000E+00
 3.400E+00 0.00000E+00
 3.600E+00 0.00000E+00
 3.800E+00 0.00000E+00
 4.000E+00 0.00000E+00
 4.200E+00 0.00000E+00
 4.400E+00 6.88136E+00
 4.600E+00 2.44368E+01
 4.800E+00 3.46233E+01
 5.000E+00 3.93357E+01
 5.500E+00 3.86920E+01
 6.000E+00 3.46270E+01
 6.500E+00 3.13997E+01
 7.000E+00 2.87734E+01
 7.500E+00 2.69396E+01
 8.000E+00 2.45696E+01
 8.500E+00 2.10563E+01
 9.000E+00 1.71376E+01
 9.500E+00 1.32137E+01
 1.000E+01 9.85905E+00
 1.100E+01 5.26225E+00
 1.200E+01 3.05286E+00
 1.300E+01 2.03319E+00
 1.400E+01 1.57927E+00
 1.500E+01 1.35204E+00
 1.600E+01 1.22080E+00
 1.700E+01 1.14204E+00
 1.800E+01 1.06029E+00
 1.900E+01 9.90593E-01
 2.000E+01 9.40040E-01
 2.100E+01 8.90151E-01
 2.200E+01 8.41945E-01
 2.300E+01 8.02916E-01
 2.400E+01 7.60211E-01
 2.500E+01 7.15787E-01
 2.600E+01 6.73788E-01
 2.700E+01 6.49055E-01
 2.800E+01 6.25375E-01
 2.900E+01 6.05334E-01
 3.000E+01 5.84758E-01
