# n + 208Pb: Gamma-ray intensity - 209Pb: Level  2 --> Level  1 - gamma energy    0.644200
# E-initial  =   1.423000 E-final=   0.778800
# E-threshold= 0.00000E+00
# # energies = 67
#    E         xs
 1.000E-11 0.00000E+00
 2.530E-08 0.00000E+00
 2.000E-07 0.00000E+00
 1.000E-06 0.00000E+00
 1.000E-03 0.00000E+00
 2.000E-03 0.00000E+00
 5.000E-03 0.00000E+00
 1.000E-02 0.00000E+00
 2.000E-02 0.00000E+00
 5.000E-02 1.81774E-10
 1.000E-01 4.33293E-09
 2.000E-01 5.30885E-08
 3.000E-01 4.25112E-06
 4.000E-01 1.19671E-05
 5.000E-01 2.22716E-05
 7.500E-01 5.23179E-05
 1.000E+00 2.55791E-04
 1.200E+00 4.64732E-04
 1.400E+00 8.82127E-04
 1.600E+00 1.41436E-03
 1.800E+00 2.17245E-03
 2.000E+00 3.35893E-03
 2.200E+00 4.93751E-03
 2.400E+00 7.10786E-03
 2.600E+00 1.00598E-02
 2.800E+00 1.29590E-02
 3.000E+00 1.47744E-02
 3.200E+00 1.67204E-02
 3.400E+00 8.50516E-03
 3.600E+00 6.59989E-03
 3.800E+00 5.52737E-03
 4.000E+00 4.29585E-03
 4.200E+00 2.19068E-03
 4.400E+00 2.03418E-03
 4.600E+00 1.91843E-03
 4.800E+00 1.97619E-03
 5.000E+00 2.00491E-03
 5.500E+00 2.46156E-03
 6.000E+00 3.16560E-03
 6.500E+00 4.23348E-03
 7.000E+00 5.86969E-03
 7.500E+00 8.34998E-03
 8.000E+00 1.22159E-02
 8.500E+00 1.78937E-02
 9.000E+00 2.44605E-02
 9.500E+00 2.89282E-02
 1.000E+01 2.97792E-02
 1.100E+01 2.88809E-02
 1.200E+01 3.12208E-02
 1.300E+01 3.36506E-02
 1.400E+01 3.32071E-02
 1.500E+01 2.88507E-02
 1.600E+01 2.29523E-02
 1.700E+01 1.84388E-02
 1.800E+01 1.56398E-02
 1.900E+01 1.39085E-02
 2.000E+01 1.27968E-02
 2.100E+01 1.19236E-02
 2.200E+01 1.11941E-02
 2.300E+01 1.06114E-02
 2.400E+01 9.97463E-03
 2.500E+01 9.57658E-03
 2.600E+01 9.21861E-03
 2.700E+01 8.84155E-03
 2.800E+01 8.44030E-03
 2.900E+01 8.32376E-03
 3.000E+01 8.12681E-03
