# n + 208Pb: Gamma-ray intensity - 208Pb: Level  9 --> Level  4 - gamma energy    0.328560
# E-initial  =   4.037000 E-final=   3.708440
# E-threshold= 4.05658E+00
# # energies = 67
#    E         xs
 1.000E-11 0.00000E+00
 2.530E-08 0.00000E+00
 2.000E-07 0.00000E+00
 1.000E-06 0.00000E+00
 1.000E-03 0.00000E+00
 2.000E-03 0.00000E+00
 5.000E-03 0.00000E+00
 1.000E-02 0.00000E+00
 2.000E-02 0.00000E+00
 5.000E-02 0.00000E+00
 1.000E-01 0.00000E+00
 2.000E-01 0.00000E+00
 3.000E-01 0.00000E+00
 4.000E-01 0.00000E+00
 5.000E-01 0.00000E+00
 7.500E-01 0.00000E+00
 1.000E+00 0.00000E+00
 1.200E+00 0.00000E+00
 1.400E+00 0.00000E+00
 1.600E+00 0.00000E+00
 1.800E+00 0.00000E+00
 2.000E+00 0.00000E+00
 2.200E+00 0.00000E+00
 2.400E+00 0.00000E+00
 2.600E+00 0.00000E+00
 2.800E+00 0.00000E+00
 3.000E+00 0.00000E+00
 3.200E+00 0.00000E+00
 3.400E+00 0.00000E+00
 3.600E+00 0.00000E+00
 3.800E+00 0.00000E+00
 4.000E+00 0.00000E+00
 4.200E+00 1.75514E+00
 4.400E+00 4.77037E+00
 4.600E+00 7.50004E+00
 4.800E+00 9.75996E+00
 5.000E+00 1.18832E+01
 5.500E+00 1.80805E+01
 6.000E+00 2.63615E+01
 6.500E+00 3.67155E+01
 7.000E+00 4.90451E+01
 7.500E+00 6.30793E+01
 8.000E+00 7.75090E+01
 8.500E+00 9.05494E+01
 9.000E+00 9.85155E+01
 9.500E+00 9.90976E+01
 1.000E+01 9.34089E+01
 1.100E+01 7.11436E+01
 1.200E+01 4.91059E+01
 1.300E+01 3.61677E+01
 1.400E+01 2.89415E+01
 1.500E+01 2.55278E+01
 1.600E+01 2.38316E+01
 1.700E+01 2.30419E+01
 1.800E+01 2.20551E+01
 1.900E+01 2.14452E+01
 2.000E+01 2.07284E+01
 2.100E+01 2.01010E+01
 2.200E+01 1.89230E+01
 2.300E+01 1.84568E+01
 2.400E+01 1.75932E+01
 2.500E+01 1.69653E+01
 2.600E+01 1.61254E+01
 2.700E+01 1.56361E+01
 2.800E+01 1.52799E+01
 2.900E+01 1.44925E+01
 3.000E+01 1.40742E+01
