# n + 208Pb: Gamma-ray intensity - 208Pb: Level 21 --> Level  2 - gamma energy    1.160959
# E-initial  =   4.358670 E-final=   3.197711
# E-threshold= 4.37981E+00
# # energies =    67
#    E           xs
 1.00000E-11 0.00000E+00
 2.53000E-08 0.00000E+00
 2.00000E-07 0.00000E+00
 1.00000E-06 0.00000E+00
 1.00000E-03 0.00000E+00
 2.00000E-03 0.00000E+00
 5.00000E-03 0.00000E+00
 1.00000E-02 0.00000E+00
 2.00000E-02 0.00000E+00
 5.00000E-02 0.00000E+00
 1.00000E-01 0.00000E+00
 2.00000E-01 0.00000E+00
 3.00000E-01 0.00000E+00
 4.00000E-01 0.00000E+00
 5.00000E-01 0.00000E+00
 7.50000E-01 0.00000E+00
 1.00000E+00 0.00000E+00
 1.20000E+00 0.00000E+00
 1.40000E+00 0.00000E+00
 1.60000E+00 0.00000E+00
 1.80000E+00 0.00000E+00
 2.00000E+00 0.00000E+00
 2.20000E+00 0.00000E+00
 2.40000E+00 0.00000E+00
 2.60000E+00 0.00000E+00
 2.80000E+00 0.00000E+00
 3.00000E+00 0.00000E+00
 3.20000E+00 0.00000E+00
 3.40000E+00 0.00000E+00
 3.60000E+00 0.00000E+00
 3.80000E+00 0.00000E+00
 4.00000E+00 0.00000E+00
 4.20000E+00 0.00000E+00
 4.40000E+00 2.57659E+00
 4.60000E+00 9.14973E+00
 4.80000E+00 1.29586E+01
 5.00000E+00 1.46756E+01
 5.50000E+00 1.42018E+01
 6.00000E+00 1.25488E+01
 6.50000E+00 1.13167E+01
 7.00000E+00 1.03679E+01
 7.50000E+00 9.73854E+00
 8.00000E+00 8.84142E+00
 8.50000E+00 7.43124E+00
 9.00000E+00 5.87693E+00
 9.50000E+00 4.37647E+00
 1.00000E+01 3.14736E+00
 1.10000E+01 1.56475E+00
 1.20000E+01 8.69341E-01
 1.30000E+01 5.74761E-01
 1.40000E+01 4.50507E-01
 1.50000E+01 3.89706E-01
 1.60000E+01 3.51028E-01
 1.70000E+01 3.31059E-01
 1.80000E+01 3.05708E-01
 1.90000E+01 2.85141E-01
 2.00000E+01 2.68917E-01
 2.10000E+01 2.55186E-01
 2.20000E+01 2.40018E-01
 2.30000E+01 2.28435E-01
 2.40000E+01 2.15876E-01
 2.50000E+01 2.01323E-01
 2.60000E+01 1.89874E-01
 2.70000E+01 1.82434E-01
 2.80000E+01 1.72644E-01
 2.90000E+01 1.65756E-01
 3.00000E+01 1.59228E-01
