# n + 208Pb: Gamma-ray intensity - 208Pb: Level  9 --> Level  2 - gamma energy    0.839260
# E-initial  =   4.037000 E-final=   3.197740
# E-threshold= 4.05658E+00
# # energies = 67
#    E         xs
 1.000E-11 0.00000E+00
 2.530E-08 0.00000E+00
 2.000E-07 0.00000E+00
 1.000E-06 0.00000E+00
 1.000E-03 0.00000E+00
 2.000E-03 0.00000E+00
 5.000E-03 0.00000E+00
 1.000E-02 0.00000E+00
 2.000E-02 0.00000E+00
 5.000E-02 0.00000E+00
 1.000E-01 0.00000E+00
 2.000E-01 0.00000E+00
 3.000E-01 0.00000E+00
 4.000E-01 0.00000E+00
 5.000E-01 0.00000E+00
 7.500E-01 0.00000E+00
 1.000E+00 0.00000E+00
 1.200E+00 0.00000E+00
 1.400E+00 0.00000E+00
 1.600E+00 0.00000E+00
 1.800E+00 0.00000E+00
 2.000E+00 0.00000E+00
 2.200E+00 0.00000E+00
 2.400E+00 0.00000E+00
 2.600E+00 0.00000E+00
 2.800E+00 0.00000E+00
 3.000E+00 0.00000E+00
 3.200E+00 0.00000E+00
 3.400E+00 0.00000E+00
 3.600E+00 0.00000E+00
 3.800E+00 0.00000E+00
 4.000E+00 0.00000E+00
 4.200E+00 1.75514E+00
 4.400E+00 4.77037E+00
 4.600E+00 7.50004E+00
 4.800E+00 9.76014E+00
 5.000E+00 1.18837E+01
 5.500E+00 1.80786E+01
 6.000E+00 2.63550E+01
 6.500E+00 3.67030E+01
 7.000E+00 4.90338E+01
 7.500E+00 6.30821E+01
 8.000E+00 7.75351E+01
 8.500E+00 9.05980E+01
 9.000E+00 9.85746E+01
 9.500E+00 9.91439E+01
 1.000E+01 9.34160E+01
 1.100E+01 7.10370E+01
 1.200E+01 4.88918E+01
 1.300E+01 3.58805E+01
 1.400E+01 2.86070E+01
 1.500E+01 2.51695E+01
 1.600E+01 2.34672E+01
 1.700E+01 2.26718E+01
 1.800E+01 2.16789E+01
 1.900E+01 2.10668E+01
 2.000E+01 2.03511E+01
 2.100E+01 1.97318E+01
 2.200E+01 1.85553E+01
 2.300E+01 1.80896E+01
 2.400E+01 1.72288E+01
 2.500E+01 1.66084E+01
 2.600E+01 1.57852E+01
 2.700E+01 1.52906E+01
 2.800E+01 1.49269E+01
 2.900E+01 1.41325E+01
 3.000E+01 1.37154E+01
