# n + 208Pb: Gamma-ray intensity - 208Pb: Level 17 --> Level  2 - gamma energy    0.982670
# E-initial  =   4.180410 E-final=   3.197740
# E-threshold= 4.20068E+00
# # energies = 67
#    E         xs
 1.000E-11 0.00000E+00
 2.530E-08 0.00000E+00
 2.000E-07 0.00000E+00
 1.000E-06 0.00000E+00
 1.000E-03 0.00000E+00
 2.000E-03 0.00000E+00
 5.000E-03 0.00000E+00
 1.000E-02 0.00000E+00
 2.000E-02 0.00000E+00
 5.000E-02 0.00000E+00
 1.000E-01 0.00000E+00
 2.000E-01 0.00000E+00
 3.000E-01 0.00000E+00
 4.000E-01 0.00000E+00
 5.000E-01 0.00000E+00
 7.500E-01 0.00000E+00
 1.000E+00 0.00000E+00
 1.200E+00 0.00000E+00
 1.400E+00 0.00000E+00
 1.600E+00 0.00000E+00
 1.800E+00 0.00000E+00
 2.000E+00 0.00000E+00
 2.200E+00 0.00000E+00
 2.400E+00 0.00000E+00
 2.600E+00 0.00000E+00
 2.800E+00 0.00000E+00
 3.000E+00 0.00000E+00
 3.200E+00 0.00000E+00
 3.400E+00 0.00000E+00
 3.600E+00 0.00000E+00
 3.800E+00 0.00000E+00
 4.000E+00 0.00000E+00
 4.200E+00 0.00000E+00
 4.400E+00 3.20845E+01
 4.600E+00 4.52644E+01
 4.800E+00 5.16994E+01
 5.000E+00 5.37470E+01
 5.500E+00 5.15539E+01
 6.000E+00 4.84094E+01
 6.500E+00 4.64685E+01
 7.000E+00 4.55662E+01
 7.500E+00 4.57961E+01
 8.000E+00 4.54577E+01
 8.500E+00 4.26467E+01
 9.000E+00 3.71772E+01
 9.500E+00 3.07459E+01
 1.000E+01 2.44115E+01
 1.100E+01 1.46316E+01
 1.200E+01 9.31605E+00
 1.300E+01 6.74321E+00
 1.400E+01 5.50481E+00
 1.500E+01 4.87038E+00
 1.600E+01 4.48798E+00
 1.700E+01 4.27080E+00
 1.800E+01 4.02622E+00
 1.900E+01 3.83332E+00
 2.000E+01 3.67357E+00
 2.100E+01 3.52636E+00
 2.200E+01 3.41695E+00
 2.300E+01 3.28112E+00
 2.400E+01 3.13786E+00
 2.500E+01 3.02545E+00
 2.600E+01 2.88839E+00
 2.700E+01 2.79276E+00
 2.800E+01 2.67483E+00
 2.900E+01 2.60868E+00
 3.000E+01 2.50630E+00
