# n + 208Pb: Gamma-ray intensity - 207Pb: Level 10 --> Level  3 - gamma energy    1.568630
# E-initial  =   3.202000 E-final=   1.633370
# E-threshold= 1.06211E+01
# # energies = 67
#    E         xs
 1.000E-11 0.00000E+00
 2.530E-08 0.00000E+00
 2.000E-07 0.00000E+00
 1.000E-06 0.00000E+00
 1.000E-03 0.00000E+00
 2.000E-03 0.00000E+00
 5.000E-03 0.00000E+00
 1.000E-02 0.00000E+00
 2.000E-02 0.00000E+00
 5.000E-02 0.00000E+00
 1.000E-01 0.00000E+00
 2.000E-01 0.00000E+00
 3.000E-01 0.00000E+00
 4.000E-01 0.00000E+00
 5.000E-01 0.00000E+00
 7.500E-01 0.00000E+00
 1.000E+00 0.00000E+00
 1.200E+00 0.00000E+00
 1.400E+00 0.00000E+00
 1.600E+00 0.00000E+00
 1.800E+00 0.00000E+00
 2.000E+00 0.00000E+00
 2.200E+00 0.00000E+00
 2.400E+00 0.00000E+00
 2.600E+00 0.00000E+00
 2.800E+00 0.00000E+00
 3.000E+00 0.00000E+00
 3.200E+00 0.00000E+00
 3.400E+00 0.00000E+00
 3.600E+00 0.00000E+00
 3.800E+00 0.00000E+00
 4.000E+00 0.00000E+00
 4.200E+00 0.00000E+00
 4.400E+00 0.00000E+00
 4.600E+00 0.00000E+00
 4.800E+00 0.00000E+00
 5.000E+00 0.00000E+00
 5.500E+00 0.00000E+00
 6.000E+00 0.00000E+00
 6.500E+00 0.00000E+00
 7.000E+00 0.00000E+00
 7.500E+00 0.00000E+00
 8.000E+00 0.00000E+00
 8.500E+00 0.00000E+00
 9.000E+00 0.00000E+00
 9.500E+00 0.00000E+00
 1.000E+01 0.00000E+00
 1.100E+01 2.99962E+00
 1.200E+01 3.34409E+01
 1.300E+01 7.72328E+01
 1.400E+01 1.18162E+02
 1.500E+01 1.49952E+02
 1.600E+01 1.74617E+02
 1.700E+01 1.91257E+02
 1.800E+01 1.91580E+02
 1.900E+01 1.71030E+02
 2.000E+01 1.39129E+02
 2.100E+01 1.08456E+02
 2.200E+01 8.61101E+01
 2.300E+01 7.21428E+01
 2.400E+01 6.35892E+01
 2.500E+01 5.93470E+01
 2.600E+01 5.64680E+01
 2.700E+01 5.41272E+01
 2.800E+01 5.25207E+01
 2.900E+01 5.11121E+01
 3.000E+01 5.02354E+01
