# n + 208Pb: Gamma-ray intensity - 208Pb: Level  7 --> Level  4 - gamma energy    0.252520
# E-initial  =   3.960960 E-final=   3.708440
# E-threshold= 3.98017E+00
# # energies = 67
#    E         xs
 1.000E-11 0.00000E+00
 2.530E-08 0.00000E+00
 2.000E-07 0.00000E+00
 1.000E-06 0.00000E+00
 1.000E-03 0.00000E+00
 2.000E-03 0.00000E+00
 5.000E-03 0.00000E+00
 1.000E-02 0.00000E+00
 2.000E-02 0.00000E+00
 5.000E-02 0.00000E+00
 1.000E-01 0.00000E+00
 2.000E-01 0.00000E+00
 3.000E-01 0.00000E+00
 4.000E-01 0.00000E+00
 5.000E-01 0.00000E+00
 7.500E-01 0.00000E+00
 1.000E+00 0.00000E+00
 1.200E+00 0.00000E+00
 1.400E+00 0.00000E+00
 1.600E+00 0.00000E+00
 1.800E+00 0.00000E+00
 2.000E+00 0.00000E+00
 2.200E+00 0.00000E+00
 2.400E+00 0.00000E+00
 2.600E+00 0.00000E+00
 2.800E+00 0.00000E+00
 3.000E+00 0.00000E+00
 3.200E+00 0.00000E+00
 3.400E+00 0.00000E+00
 3.600E+00 0.00000E+00
 3.800E+00 0.00000E+00
 4.000E+00 8.95838E+00
 4.200E+00 2.87218E+01
 4.400E+00 3.70031E+01
 4.600E+00 4.05192E+01
 4.800E+00 4.12693E+01
 5.000E+00 4.08575E+01
 5.500E+00 3.86959E+01
 6.000E+00 3.66436E+01
 6.500E+00 3.53307E+01
 7.000E+00 3.50406E+01
 7.500E+00 3.56556E+01
 8.000E+00 3.59151E+01
 8.500E+00 3.43152E+01
 9.000E+00 3.04680E+01
 9.500E+00 2.55449E+01
 1.000E+01 2.05065E+01
 1.100E+01 1.23973E+01
 1.200E+01 7.80198E+00
 1.300E+01 5.57028E+00
 1.400E+01 4.48091E+00
 1.500E+01 3.92955E+00
 1.600E+01 3.58678E+00
 1.700E+01 3.39130E+00
 1.800E+01 3.18540E+00
 1.900E+01 3.02187E+00
 2.000E+01 2.87380E+00
 2.100E+01 2.75274E+00
 2.200E+01 2.65008E+00
 2.300E+01 2.54343E+00
 2.400E+01 2.42004E+00
 2.500E+01 2.32558E+00
 2.600E+01 2.21350E+00
 2.700E+01 2.13048E+00
 2.800E+01 2.05772E+00
 2.900E+01 1.98160E+00
 3.000E+01 1.90539E+00
