# n + 208Pb: Gamma-ray intensity - 208Pb: Level 24 --> Level  1 - gamma energy    1.832478
# E-initial  =   4.447000 E-final=   2.614522
# E-threshold= 4.46857E+00
# # energies =    67
#    E           xs
 1.00000E-11 0.00000E+00
 2.53000E-08 0.00000E+00
 2.00000E-07 0.00000E+00
 1.00000E-06 0.00000E+00
 1.00000E-03 0.00000E+00
 2.00000E-03 0.00000E+00
 5.00000E-03 0.00000E+00
 1.00000E-02 0.00000E+00
 2.00000E-02 0.00000E+00
 5.00000E-02 0.00000E+00
 1.00000E-01 0.00000E+00
 2.00000E-01 0.00000E+00
 3.00000E-01 0.00000E+00
 4.00000E-01 0.00000E+00
 5.00000E-01 0.00000E+00
 7.50000E-01 0.00000E+00
 1.00000E+00 0.00000E+00
 1.20000E+00 0.00000E+00
 1.40000E+00 0.00000E+00
 1.60000E+00 0.00000E+00
 1.80000E+00 0.00000E+00
 2.00000E+00 0.00000E+00
 2.20000E+00 0.00000E+00
 2.40000E+00 0.00000E+00
 2.60000E+00 0.00000E+00
 2.80000E+00 0.00000E+00
 3.00000E+00 0.00000E+00
 3.20000E+00 0.00000E+00
 3.40000E+00 0.00000E+00
 3.60000E+00 0.00000E+00
 3.80000E+00 0.00000E+00
 4.00000E+00 0.00000E+00
 4.20000E+00 0.00000E+00
 4.40000E+00 0.00000E+00
 4.60000E+00 1.32941E+01
 4.80000E+00 2.60776E+01
 5.00000E+00 3.16636E+01
 5.50000E+00 3.26086E+01
 6.00000E+00 3.18219E+01
 6.50000E+00 3.00102E+01
 7.00000E+00 2.66763E+01
 7.50000E+00 2.36502E+01
 8.00000E+00 1.95882E+01
 8.50000E+00 1.51599E+01
 9.00000E+00 1.15997E+01
 9.50000E+00 8.40301E+00
 1.00000E+01 6.20068E+00
 1.10000E+01 3.49335E+00
 1.20000E+01 2.36503E+00
 1.30000E+01 1.86528E+00
 1.40000E+01 1.64733E+00
 1.50000E+01 1.51091E+00
 1.60000E+01 1.39972E+00
 1.70000E+01 1.34772E+00
 1.80000E+01 1.25323E+00
 1.90000E+01 1.18448E+00
 2.00000E+01 1.12088E+00
 2.10000E+01 1.07897E+00
 2.20000E+01 1.00843E+00
 2.30000E+01 9.74247E-01
 2.40000E+01 9.40438E-01
 2.50000E+01 8.80557E-01
 2.60000E+01 8.47693E-01
 2.70000E+01 8.25815E-01
 2.80000E+01 7.97141E-01
 2.90000E+01 7.61498E-01
 3.00000E+01 7.33557E-01
