# n + 208Pb: Gamma-ray intensity - 208Pb: Level 28 --> Level 10 - gamma energy    0.647189
# E-initial  =   4.698323 E-final=   4.051134
# E-threshold= 4.72111E+00
# # energies =    67
#    E           xs
 1.00000E-11 0.00000E+00
 2.53000E-08 0.00000E+00
 2.00000E-07 0.00000E+00
 1.00000E-06 0.00000E+00
 1.00000E-03 0.00000E+00
 2.00000E-03 0.00000E+00
 5.00000E-03 0.00000E+00
 1.00000E-02 0.00000E+00
 2.00000E-02 0.00000E+00
 5.00000E-02 0.00000E+00
 1.00000E-01 0.00000E+00
 2.00000E-01 0.00000E+00
 3.00000E-01 0.00000E+00
 4.00000E-01 0.00000E+00
 5.00000E-01 0.00000E+00
 7.50000E-01 0.00000E+00
 1.00000E+00 0.00000E+00
 1.20000E+00 0.00000E+00
 1.40000E+00 0.00000E+00
 1.60000E+00 0.00000E+00
 1.80000E+00 0.00000E+00
 2.00000E+00 0.00000E+00
 2.20000E+00 0.00000E+00
 2.40000E+00 0.00000E+00
 2.60000E+00 0.00000E+00
 2.80000E+00 0.00000E+00
 3.00000E+00 0.00000E+00
 3.20000E+00 0.00000E+00
 3.40000E+00 0.00000E+00
 3.60000E+00 0.00000E+00
 3.80000E+00 0.00000E+00
 4.00000E+00 0.00000E+00
 4.20000E+00 0.00000E+00
 4.40000E+00 0.00000E+00
 4.60000E+00 0.00000E+00
 4.80000E+00 2.64367E-01
 5.00000E+00 5.57695E-01
 5.50000E+00 7.68250E-01
 6.00000E+00 6.79593E-01
 6.50000E+00 6.01321E-01
 7.00000E+00 5.43987E-01
 7.50000E+00 4.95349E-01
 8.00000E+00 4.24286E-01
 8.50000E+00 3.36388E-01
 9.00000E+00 2.59068E-01
 9.50000E+00 1.92142E-01
 1.00000E+01 1.41508E-01
 1.10000E+01 8.14912E-02
 1.20000E+01 5.55159E-02
 1.30000E+01 4.40817E-02
 1.40000E+01 3.90762E-02
 1.50000E+01 3.60648E-02
 1.60000E+01 3.37290E-02
 1.70000E+01 3.25274E-02
 1.80000E+01 3.09754E-02
 1.90000E+01 2.97144E-02
 2.00000E+01 2.88879E-02
 2.10000E+01 2.81207E-02
 2.20000E+01 2.69279E-02
 2.30000E+01 2.61332E-02
 2.40000E+01 2.52357E-02
 2.50000E+01 2.41385E-02
 2.60000E+01 2.34267E-02
 2.70000E+01 2.29102E-02
 2.80000E+01 2.21798E-02
 2.90000E+01 2.14832E-02
 3.00000E+01 2.09640E-02
