# n + 208Pb: Gamma-ray intensity - 208Pb: Level  8 --> Level  1 - gamma energy    1.381150
# E-initial  =   3.995700 E-final=   2.614550
# E-threshold= 4.01508E+00
# # energies = 67
#    E         xs
 1.000E-11 0.00000E+00
 2.530E-08 0.00000E+00
 2.000E-07 0.00000E+00
 1.000E-06 0.00000E+00
 1.000E-03 0.00000E+00
 2.000E-03 0.00000E+00
 5.000E-03 0.00000E+00
 1.000E-02 0.00000E+00
 2.000E-02 0.00000E+00
 5.000E-02 0.00000E+00
 1.000E-01 0.00000E+00
 2.000E-01 0.00000E+00
 3.000E-01 0.00000E+00
 4.000E-01 0.00000E+00
 5.000E-01 0.00000E+00
 7.500E-01 0.00000E+00
 1.000E+00 0.00000E+00
 1.200E+00 0.00000E+00
 1.400E+00 0.00000E+00
 1.600E+00 0.00000E+00
 1.800E+00 0.00000E+00
 2.000E+00 0.00000E+00
 2.200E+00 0.00000E+00
 2.400E+00 0.00000E+00
 2.600E+00 0.00000E+00
 2.800E+00 0.00000E+00
 3.000E+00 0.00000E+00
 3.200E+00 0.00000E+00
 3.400E+00 0.00000E+00
 3.600E+00 0.00000E+00
 3.800E+00 0.00000E+00
 4.000E+00 0.00000E+00
 4.200E+00 3.76225E+01
 4.400E+00 4.95446E+01
 4.600E+00 5.06954E+01
 4.800E+00 4.75086E+01
 5.000E+00 4.40772E+01
 5.500E+00 3.97494E+01
 6.000E+00 3.90601E+01
 6.500E+00 3.95169E+01
 7.000E+00 4.05713E+01
 7.500E+00 4.18887E+01
 8.000E+00 4.19176E+01
 8.500E+00 3.86659E+01
 9.000E+00 3.27622E+01
 9.500E+00 2.61697E+01
 1.000E+01 2.01770E+01
 1.100E+01 1.19633E+01
 1.200E+01 8.06905E+00
 1.300E+01 6.38730E+00
 1.400E+01 5.58084E+00
 1.500E+01 5.15275E+00
 1.600E+01 4.86018E+00
 1.700E+01 4.68417E+00
 1.800E+01 4.46497E+00
 1.900E+01 4.28886E+00
 2.000E+01 4.12090E+00
 2.100E+01 3.97767E+00
 2.200E+01 3.82051E+00
 2.300E+01 3.69243E+00
 2.400E+01 3.53556E+00
 2.500E+01 3.40443E+00
 2.600E+01 3.26606E+00
 2.700E+01 3.15335E+00
 2.800E+01 3.05442E+00
 2.900E+01 2.95279E+00
 3.000E+01 2.86091E+00
