# n + 208Pb: Gamma-ray intensity - 208Pb: Level 13 --> Level  1 - gamma energy    1.491450
# E-initial  =   4.106000 E-final=   2.614550
# E-threshold= 4.12591E+00
# # energies = 66
#    E         xs
 1.000E-11 0.00000E+00
 2.530E-08 0.00000E+00
 1.000E-06 0.00000E+00
 1.000E-03 0.00000E+00
 2.000E-03 0.00000E+00
 5.000E-03 0.00000E+00
 1.000E-02 0.00000E+00
 2.000E-02 0.00000E+00
 5.000E-02 0.00000E+00
 1.000E-01 0.00000E+00
 2.000E-01 0.00000E+00
 3.000E-01 0.00000E+00
 4.000E-01 0.00000E+00
 5.000E-01 0.00000E+00
 7.500E-01 0.00000E+00
 1.000E+00 0.00000E+00
 1.200E+00 0.00000E+00
 1.400E+00 0.00000E+00
 1.600E+00 0.00000E+00
 1.800E+00 0.00000E+00
 2.000E+00 0.00000E+00
 2.200E+00 0.00000E+00
 2.400E+00 0.00000E+00
 2.600E+00 0.00000E+00
 2.800E+00 0.00000E+00
 3.000E+00 0.00000E+00
 3.200E+00 0.00000E+00
 3.400E+00 0.00000E+00
 3.600E+00 0.00000E+00
 3.800E+00 0.00000E+00
 4.000E+00 0.00000E+00
 4.200E+00 1.97389E+01
 4.400E+00 3.66484E+01
 4.600E+00 4.26067E+01
 4.800E+00 4.26638E+01
 5.000E+00 4.02288E+01
 5.500E+00 3.31629E+01
 6.000E+00 2.87582E+01
 6.500E+00 2.61356E+01
 7.000E+00 2.45205E+01
 7.500E+00 2.35361E+01
 8.000E+00 2.09009E+01
 8.500E+00 1.69649E+01
 9.000E+00 1.30668E+01
 9.500E+00 9.82247E+00
 1.000E+01 7.13673E+00
 1.100E+01 3.97291E+00
 1.200E+01 2.66290E+00
 1.300E+01 2.06799E+00
 1.400E+01 1.80275E+00
 1.500E+01 1.63969E+00
 1.600E+01 1.53103E+00
 1.700E+01 1.46658E+00
 1.800E+01 1.40152E+00
 1.900E+01 1.32204E+00
 2.000E+01 1.28215E+00
 2.100E+01 1.21695E+00
 2.200E+01 1.17716E+00
 2.300E+01 1.11174E+00
 2.400E+01 1.06836E+00
 2.500E+01 1.03851E+00
 2.600E+01 9.77322E-01
 2.700E+01 9.44281E-01
 2.800E+01 9.17645E-01
 2.900E+01 8.90772E-01
 3.000E+01 8.39025E-01
