# n + 208Pb: Gamma-ray intensity - 208Pb: Level 15 --> Level  1 - gamma energy    1.526450
# E-initial  =   4.141000 E-final=   2.614550
# E-threshold= 4.16108E+00
# # energies = 67
#    E         xs
 1.000E-11 0.00000E+00
 2.530E-08 0.00000E+00
 2.000E-07 0.00000E+00
 1.000E-06 0.00000E+00
 1.000E-03 0.00000E+00
 2.000E-03 0.00000E+00
 5.000E-03 0.00000E+00
 1.000E-02 0.00000E+00
 2.000E-02 0.00000E+00
 5.000E-02 0.00000E+00
 1.000E-01 0.00000E+00
 2.000E-01 0.00000E+00
 3.000E-01 0.00000E+00
 4.000E-01 0.00000E+00
 5.000E-01 0.00000E+00
 7.500E-01 0.00000E+00
 1.000E+00 0.00000E+00
 1.200E+00 0.00000E+00
 1.400E+00 0.00000E+00
 1.600E+00 0.00000E+00
 1.800E+00 0.00000E+00
 2.000E+00 0.00000E+00
 2.200E+00 0.00000E+00
 2.400E+00 0.00000E+00
 2.600E+00 0.00000E+00
 2.800E+00 0.00000E+00
 3.000E+00 0.00000E+00
 3.200E+00 0.00000E+00
 3.400E+00 0.00000E+00
 3.600E+00 0.00000E+00
 3.800E+00 0.00000E+00
 4.000E+00 0.00000E+00
 4.200E+00 8.88545E+00
 4.400E+00 3.18815E+01
 4.600E+00 4.10352E+01
 4.800E+00 4.35247E+01
 5.000E+00 4.38803E+01
 5.500E+00 4.40071E+01
 6.000E+00 4.28033E+01
 6.500E+00 3.86396E+01
 7.000E+00 3.40222E+01
 7.500E+00 3.06041E+01
 8.000E+00 2.60909E+01
 8.500E+00 2.11966E+01
 9.000E+00 1.66271E+01
 9.500E+00 1.29192E+01
 1.000E+01 9.67274E+00
 1.100E+01 5.58754E+00
 1.200E+01 3.74900E+00
 1.300E+01 2.81276E+00
 1.400E+01 2.38230E+00
 1.500E+01 2.08692E+00
 1.600E+01 1.91244E+00
 1.700E+01 1.83017E+00
 1.800E+01 1.72809E+00
 1.900E+01 1.61112E+00
 2.000E+01 1.57067E+00
 2.100E+01 1.46688E+00
 2.200E+01 1.45140E+00
 2.300E+01 1.34627E+00
 2.400E+01 1.31005E+00
 2.500E+01 1.27734E+00
 2.600E+01 1.17507E+00
 2.700E+01 1.15062E+00
 2.800E+01 1.11205E+00
 2.900E+01 1.09991E+00
 3.000E+01 1.02183E+00
