# n + 208Pb: Gamma-ray intensity - 207Pb: Level  8 --> Level  3 - gamma energy    1.093630
# E-initial  =   2.727000 E-final=   1.633370
# E-threshold= 1.01438E+01
# # energies = 67
#    E         xs
 1.000E-11 0.00000E+00
 2.530E-08 0.00000E+00
 2.000E-07 0.00000E+00
 1.000E-06 0.00000E+00
 1.000E-03 0.00000E+00
 2.000E-03 0.00000E+00
 5.000E-03 0.00000E+00
 1.000E-02 0.00000E+00
 2.000E-02 0.00000E+00
 5.000E-02 0.00000E+00
 1.000E-01 0.00000E+00
 2.000E-01 0.00000E+00
 3.000E-01 0.00000E+00
 4.000E-01 0.00000E+00
 5.000E-01 0.00000E+00
 7.500E-01 0.00000E+00
 1.000E+00 0.00000E+00
 1.200E+00 0.00000E+00
 1.400E+00 0.00000E+00
 1.600E+00 0.00000E+00
 1.800E+00 0.00000E+00
 2.000E+00 0.00000E+00
 2.200E+00 0.00000E+00
 2.400E+00 0.00000E+00
 2.600E+00 0.00000E+00
 2.800E+00 0.00000E+00
 3.000E+00 0.00000E+00
 3.200E+00 0.00000E+00
 3.400E+00 0.00000E+00
 3.600E+00 0.00000E+00
 3.800E+00 0.00000E+00
 4.000E+00 0.00000E+00
 4.200E+00 0.00000E+00
 4.400E+00 0.00000E+00
 4.600E+00 0.00000E+00
 4.800E+00 0.00000E+00
 5.000E+00 0.00000E+00
 5.500E+00 0.00000E+00
 6.000E+00 0.00000E+00
 6.500E+00 0.00000E+00
 7.000E+00 0.00000E+00
 7.500E+00 0.00000E+00
 8.000E+00 0.00000E+00
 8.500E+00 0.00000E+00
 9.000E+00 0.00000E+00
 9.500E+00 0.00000E+00
 1.000E+01 0.00000E+00
 1.100E+01 1.22303E+01
 1.200E+01 4.62423E+01
 1.300E+01 7.81073E+01
 1.400E+01 9.62872E+01
 1.500E+01 1.03299E+02
 1.600E+01 1.02305E+02
 1.700E+01 9.24434E+01
 1.800E+01 7.66873E+01
 1.900E+01 5.99449E+01
 2.000E+01 4.60667E+01
 2.100E+01 3.57632E+01
 2.200E+01 2.88642E+01
 2.300E+01 2.44946E+01
 2.400E+01 2.16176E+01
 2.500E+01 1.97614E+01
 2.600E+01 1.84015E+01
 2.700E+01 1.73669E+01
 2.800E+01 1.65478E+01
 2.900E+01 1.57225E+01
 3.000E+01 1.51389E+01
