# n + 208Pb: Gamma-ray intensity - 208Pb: Level  9 --> Level  2 - gamma energy    0.839260
# E-initial  =   4.037000 E-final=   3.197740
# E-threshold= 4.05658E+00
# # energies = 66
#    E         xs
 1.000E-11 0.00000E+00
 2.530E-08 0.00000E+00
 1.000E-06 0.00000E+00
 1.000E-03 0.00000E+00
 2.000E-03 0.00000E+00
 5.000E-03 0.00000E+00
 1.000E-02 0.00000E+00
 2.000E-02 0.00000E+00
 5.000E-02 0.00000E+00
 1.000E-01 0.00000E+00
 2.000E-01 0.00000E+00
 3.000E-01 0.00000E+00
 4.000E-01 0.00000E+00
 5.000E-01 0.00000E+00
 7.500E-01 0.00000E+00
 1.000E+00 0.00000E+00
 1.200E+00 0.00000E+00
 1.400E+00 0.00000E+00
 1.600E+00 0.00000E+00
 1.800E+00 0.00000E+00
 2.000E+00 0.00000E+00
 2.200E+00 0.00000E+00
 2.400E+00 0.00000E+00
 2.600E+00 0.00000E+00
 2.800E+00 0.00000E+00
 3.000E+00 0.00000E+00
 3.200E+00 0.00000E+00
 3.400E+00 0.00000E+00
 3.600E+00 0.00000E+00
 3.800E+00 0.00000E+00
 4.000E+00 0.00000E+00
 4.200E+00 1.75672E+00
 4.400E+00 4.76865E+00
 4.600E+00 7.48939E+00
 4.800E+00 9.77690E+00
 5.000E+00 1.19920E+01
 5.500E+00 1.85924E+01
 6.000E+00 2.71429E+01
 6.500E+00 3.72175E+01
 7.000E+00 4.85184E+01
 7.500E+00 6.07049E+01
 8.000E+00 7.28353E+01
 8.500E+00 8.31113E+01
 9.000E+00 8.80513E+01
 9.500E+00 8.53123E+01
 1.000E+01 7.70065E+01
 1.100E+01 5.47830E+01
 1.200E+01 3.67884E+01
 1.300E+01 2.78848E+01
 1.400E+01 2.35988E+01
 1.500E+01 2.18018E+01
 1.600E+01 2.08974E+01
 1.700E+01 2.05490E+01
 1.800E+01 1.97943E+01
 1.900E+01 1.92902E+01
 2.000E+01 1.87114E+01
 2.100E+01 1.81767E+01
 2.200E+01 1.75839E+01
 2.300E+01 1.71910E+01
 2.400E+01 1.63705E+01
 2.500E+01 1.58307E+01
 2.600E+01 1.50882E+01
 2.700E+01 1.45926E+01
 2.800E+01 1.42845E+01
 2.900E+01 1.35016E+01
 3.000E+01 1.31474E+01
