# n + 208Pb: Gamma-ray intensity - 208Pb: Level 20 --> Level  5 - gamma energy    0.310200
# E-initial  =   4.230000 E-final=   3.919800
# E-threshold= 4.25052E+00
# # energies = 67
#    E         xs
 1.000E-11 0.00000E+00
 2.530E-08 0.00000E+00
 2.000E-07 0.00000E+00
 1.000E-06 0.00000E+00
 1.000E-03 0.00000E+00
 2.000E-03 0.00000E+00
 5.000E-03 0.00000E+00
 1.000E-02 0.00000E+00
 2.000E-02 0.00000E+00
 5.000E-02 0.00000E+00
 1.000E-01 0.00000E+00
 2.000E-01 0.00000E+00
 3.000E-01 0.00000E+00
 4.000E-01 0.00000E+00
 5.000E-01 0.00000E+00
 7.500E-01 0.00000E+00
 1.000E+00 0.00000E+00
 1.200E+00 0.00000E+00
 1.400E+00 0.00000E+00
 1.600E+00 0.00000E+00
 1.800E+00 0.00000E+00
 2.000E+00 0.00000E+00
 2.200E+00 0.00000E+00
 2.400E+00 0.00000E+00
 2.600E+00 0.00000E+00
 2.800E+00 0.00000E+00
 3.000E+00 0.00000E+00
 3.200E+00 0.00000E+00
 3.400E+00 0.00000E+00
 3.600E+00 0.00000E+00
 3.800E+00 0.00000E+00
 4.000E+00 0.00000E+00
 4.200E+00 0.00000E+00
 4.400E+00 1.85187E+01
 4.600E+00 2.85994E+01
 4.800E+00 3.33789E+01
 5.000E+00 3.45557E+01
 5.500E+00 3.14104E+01
 6.000E+00 2.75093E+01
 6.500E+00 2.46361E+01
 7.000E+00 2.25444E+01
 7.500E+00 2.13143E+01
 8.000E+00 1.99074E+01
 8.500E+00 1.75897E+01
 9.000E+00 1.46646E+01
 9.500E+00 1.16820E+01
 1.000E+01 8.96696E+00
 1.100E+01 5.11800E+00
 1.200E+01 3.12857E+00
 1.300E+01 2.17448E+00
 1.400E+01 1.71770E+00
 1.500E+01 1.48361E+00
 1.600E+01 1.34322E+00
 1.700E+01 1.27754E+00
 1.800E+01 1.20360E+00
 1.900E+01 1.14211E+00
 2.000E+01 1.09484E+00
 2.100E+01 1.05576E+00
 2.200E+01 1.04087E+00
 2.300E+01 1.00235E+00
 2.400E+01 9.66081E-01
 2.500E+01 9.35014E-01
 2.600E+01 8.91852E-01
 2.700E+01 8.64886E-01
 2.800E+01 8.33268E-01
 2.900E+01 8.11171E-01
 3.000E+01 7.82671E-01
