# n + 208Pb: Gamma-ray intensity - 208Pb: Level  8 --> Level  1 - gamma energy    1.380920
# E-initial  =   3.995440 E-final=   2.614520
# E-threshold= 4.01482E+00
# # energies = 67
#    E         xs
 1.000E-11 0.00000E+00
 2.530E-08 0.00000E+00
 2.000E-07 0.00000E+00
 1.000E-06 0.00000E+00
 1.000E-03 0.00000E+00
 2.000E-03 0.00000E+00
 5.000E-03 0.00000E+00
 1.000E-02 0.00000E+00
 2.000E-02 0.00000E+00
 5.000E-02 0.00000E+00
 1.000E-01 0.00000E+00
 2.000E-01 0.00000E+00
 3.000E-01 0.00000E+00
 4.000E-01 0.00000E+00
 5.000E-01 0.00000E+00
 7.500E-01 0.00000E+00
 1.000E+00 0.00000E+00
 1.200E+00 0.00000E+00
 1.400E+00 0.00000E+00
 1.600E+00 0.00000E+00
 1.800E+00 0.00000E+00
 2.000E+00 0.00000E+00
 2.200E+00 0.00000E+00
 2.400E+00 0.00000E+00
 2.600E+00 0.00000E+00
 2.800E+00 0.00000E+00
 3.000E+00 0.00000E+00
 3.200E+00 0.00000E+00
 3.400E+00 0.00000E+00
 3.600E+00 0.00000E+00
 3.800E+00 0.00000E+00
 4.000E+00 0.00000E+00
 4.200E+00 4.99060E+01
 4.400E+00 7.08010E+01
 4.600E+00 7.88657E+01
 4.800E+00 8.09554E+01
 5.000E+00 7.97827E+01
 5.500E+00 7.35482E+01
 6.000E+00 6.74329E+01
 6.500E+00 6.23889E+01
 7.000E+00 5.90392E+01
 7.500E+00 5.71401E+01
 8.000E+00 5.33107E+01
 8.500E+00 4.63624E+01
 9.000E+00 3.81972E+01
 9.500E+00 2.98250E+01
 1.000E+01 2.26066E+01
 1.100E+01 1.25384E+01
 1.200E+01 7.61481E+00
 1.300E+01 5.31991E+00
 1.400E+01 4.28357E+00
 1.500E+01 3.74062E+00
 1.600E+01 3.39178E+00
 1.700E+01 3.17065E+00
 1.800E+01 2.93829E+00
 1.900E+01 2.74783E+00
 2.000E+01 2.59422E+00
 2.100E+01 2.45353E+00
 2.200E+01 2.31086E+00
 2.300E+01 2.19396E+00
 2.400E+01 2.07658E+00
 2.500E+01 1.93239E+00
 2.600E+01 1.81058E+00
 2.700E+01 1.73753E+00
 2.800E+01 1.67297E+00
 2.900E+01 1.61470E+00
 3.000E+01 1.55666E+00
