# n + 208Pb: Gamma-ray intensity - 209Pb: Level  4 --> Level  3 - gamma energy    0.465130
# E-initial  =   2.032220 E-final=   1.567090
# E-threshold= 0.00000E+00
# # energies =    67
#    E           xs
 1.00000E-11 0.00000E+00
 2.53000E-08 0.00000E+00
 2.00000E-07 0.00000E+00
 1.00000E-06 2.14876E+02
 1.00000E-03 7.11981E-01
 2.00000E-03 4.16272E-01
 5.00000E-03 2.19747E-01
 1.00000E-02 1.29018E-01
 2.00000E-02 7.13637E-02
 5.00000E-02 3.24493E-02
 1.00000E-01 1.87223E-02
 2.00000E-01 1.18358E-02
 3.00000E-01 9.78220E-03
 4.00000E-01 9.01061E-03
 5.00000E-01 8.79350E-03
 7.50000E-01 9.37222E-03
 1.00000E+00 1.08881E-02
 1.20000E+00 1.26171E-02
 1.40000E+00 1.47457E-02
 1.60000E+00 1.74350E-02
 1.80000E+00 2.06644E-02
 2.00000E+00 2.44960E-02
 2.20000E+00 2.93346E-02
 2.40000E+00 3.50500E-02
 2.60000E+00 4.13109E-02
 2.80000E+00 4.05809E-02
 3.00000E+00 4.15415E-02
 3.20000E+00 4.49937E-02
 3.40000E+00 4.77913E-02
 3.60000E+00 5.20003E-02
 3.80000E+00 5.42386E-02
 4.00000E+00 5.80225E-02
 4.20000E+00 5.54362E-02
 4.40000E+00 4.48302E-02
 4.60000E+00 3.90521E-02
 4.80000E+00 4.04693E-02
 5.00000E+00 3.74294E-02
 5.50000E+00 3.10288E-02
 6.00000E+00 2.84858E-02
 6.50000E+00 3.05678E-02
 7.00000E+00 3.74395E-02
 7.50000E+00 5.03346E-02
 8.00000E+00 7.47431E-02
 8.50000E+00 1.17010E-01
 9.00000E+00 1.83582E-01
 9.50000E+00 2.70750E-01
 1.00000E+01 3.41131E-01
 1.10000E+01 3.13000E-01
 1.20000E+01 2.09900E-01
 1.30000E+01 1.43484E-01
 1.40000E+01 1.08472E-01
 1.50000E+01 8.71679E-02
 1.60000E+01 7.41096E-02
 1.70000E+01 6.88875E-02
 1.80000E+01 6.31848E-02
 1.90000E+01 6.01423E-02
 2.00000E+01 5.60100E-02
 2.10000E+01 5.08837E-02
 2.20000E+01 4.60824E-02
 2.30000E+01 4.38485E-02
 2.40000E+01 3.99009E-02
 2.50000E+01 3.80259E-02
 2.60000E+01 3.56380E-02
 2.70000E+01 3.43162E-02
 2.80000E+01 3.28176E-02
 2.90000E+01 3.13683E-02
 3.00000E+01 3.04966E-02
