# n + 208Pb: Gamma-ray intensity - 208Pb: Level 28 --> Level 17 - gamma energy    0.443530
# E-initial  =   4.698320 E-final=   4.254790
# E-threshold= 4.72111E+00
# # energies = 67
#    E         xs
 1.000E-11 0.00000E+00
 2.530E-08 0.00000E+00
 2.000E-07 0.00000E+00
 1.000E-06 0.00000E+00
 1.000E-03 0.00000E+00
 2.000E-03 0.00000E+00
 5.000E-03 0.00000E+00
 1.000E-02 0.00000E+00
 2.000E-02 0.00000E+00
 5.000E-02 0.00000E+00
 1.000E-01 0.00000E+00
 2.000E-01 0.00000E+00
 3.000E-01 0.00000E+00
 4.000E-01 0.00000E+00
 5.000E-01 0.00000E+00
 7.500E-01 0.00000E+00
 1.000E+00 0.00000E+00
 1.200E+00 0.00000E+00
 1.400E+00 0.00000E+00
 1.600E+00 0.00000E+00
 1.800E+00 0.00000E+00
 2.000E+00 0.00000E+00
 2.200E+00 0.00000E+00
 2.400E+00 0.00000E+00
 2.600E+00 0.00000E+00
 2.800E+00 0.00000E+00
 3.000E+00 0.00000E+00
 3.200E+00 0.00000E+00
 3.400E+00 0.00000E+00
 3.600E+00 0.00000E+00
 3.800E+00 0.00000E+00
 4.000E+00 0.00000E+00
 4.200E+00 0.00000E+00
 4.400E+00 0.00000E+00
 4.600E+00 0.00000E+00
 4.800E+00 2.53416E+00
 5.000E+00 5.30275E+00
 5.500E+00 7.43242E+00
 6.000E+00 6.66871E+00
 6.500E+00 5.93140E+00
 7.000E+00 5.35412E+00
 7.500E+00 4.83836E+00
 8.000E+00 4.14046E+00
 8.500E+00 3.30687E+00
 9.000E+00 2.55989E+00
 9.500E+00 1.89396E+00
 1.000E+01 1.36974E+00
 1.100E+01 7.19459E-01
 1.200E+01 4.22087E-01
 1.300E+01 2.85006E-01
 1.400E+01 2.27197E-01
 1.500E+01 1.97286E-01
 1.600E+01 1.80761E-01
 1.700E+01 1.73553E-01
 1.800E+01 1.63152E-01
 1.900E+01 1.53620E-01
 2.000E+01 1.49786E-01
 2.100E+01 1.45002E-01
 2.200E+01 1.37694E-01
 2.300E+01 1.34143E-01
 2.400E+01 1.29029E-01
 2.500E+01 1.22564E-01
 2.600E+01 1.18638E-01
 2.700E+01 1.16186E-01
 2.800E+01 1.13359E-01
 2.900E+01 1.09436E-01
 3.000E+01 1.06881E-01
