# n + 208Pb: Gamma-ray intensity - 208Pb: Level  7 --> Level  4 - gamma energy    0.252520
# E-initial  =   3.960960 E-final=   3.708440
# E-threshold= 3.98017E+00
# # energies = 67
#    E         xs
 1.000E-11 0.00000E+00
 2.530E-08 0.00000E+00
 2.000E-07 0.00000E+00
 1.000E-06 0.00000E+00
 1.000E-03 0.00000E+00
 2.000E-03 0.00000E+00
 5.000E-03 0.00000E+00
 1.000E-02 0.00000E+00
 2.000E-02 0.00000E+00
 5.000E-02 0.00000E+00
 1.000E-01 0.00000E+00
 2.000E-01 0.00000E+00
 3.000E-01 0.00000E+00
 4.000E-01 0.00000E+00
 5.000E-01 0.00000E+00
 7.500E-01 0.00000E+00
 1.000E+00 0.00000E+00
 1.200E+00 0.00000E+00
 1.400E+00 0.00000E+00
 1.600E+00 0.00000E+00
 1.800E+00 0.00000E+00
 2.000E+00 0.00000E+00
 2.200E+00 0.00000E+00
 2.400E+00 0.00000E+00
 2.600E+00 0.00000E+00
 2.800E+00 0.00000E+00
 3.000E+00 0.00000E+00
 3.200E+00 0.00000E+00
 3.400E+00 0.00000E+00
 3.600E+00 0.00000E+00
 3.800E+00 0.00000E+00
 4.000E+00 3.97879E+00
 4.200E+00 1.27566E+01
 4.400E+00 1.64429E+01
 4.600E+00 1.80453E+01
 4.800E+00 1.84569E+01
 5.000E+00 1.83876E+01
 5.500E+00 1.77981E+01
 6.000E+00 1.72453E+01
 6.500E+00 1.69346E+01
 7.000E+00 1.69902E+01
 7.500E+00 1.73778E+01
 8.000E+00 1.74296E+01
 8.500E+00 1.64626E+01
 9.000E+00 1.44351E+01
 9.500E+00 1.19945E+01
 1.000E+01 9.55951E+00
 1.100E+01 5.74912E+00
 1.200E+01 3.66328E+00
 1.300E+01 2.65725E+00
 1.400E+01 2.17421E+00
 1.500E+01 1.92488E+00
 1.600E+01 1.77116E+00
 1.700E+01 1.67842E+00
 1.800E+01 1.57604E+00
 1.900E+01 1.49402E+00
 2.000E+01 1.42537E+00
 2.100E+01 1.36207E+00
 2.200E+01 1.30838E+00
 2.300E+01 1.25201E+00
 2.400E+01 1.19183E+00
 2.500E+01 1.14178E+00
 2.600E+01 1.08660E+00
 2.700E+01 1.04716E+00
 2.800E+01 1.00400E+00
 2.900E+01 9.74050E-01
 3.000E+01 9.34087E-01
