# n + 208Pb: Gamma-ray intensity - 208Pb: Level  8 --> Level  1 - gamma energy    1.381150
# E-initial  =   3.995700 E-final=   2.614550
# E-threshold= 4.01508E+00
# # energies = 66
#    E         xs
 1.000E-11 0.00000E+00
 2.530E-08 0.00000E+00
 1.000E-06 0.00000E+00
 1.000E-03 0.00000E+00
 2.000E-03 0.00000E+00
 5.000E-03 0.00000E+00
 1.000E-02 0.00000E+00
 2.000E-02 0.00000E+00
 5.000E-02 0.00000E+00
 1.000E-01 0.00000E+00
 2.000E-01 0.00000E+00
 3.000E-01 0.00000E+00
 4.000E-01 0.00000E+00
 5.000E-01 0.00000E+00
 7.500E-01 0.00000E+00
 1.000E+00 0.00000E+00
 1.200E+00 0.00000E+00
 1.400E+00 0.00000E+00
 1.600E+00 0.00000E+00
 1.800E+00 0.00000E+00
 2.000E+00 0.00000E+00
 2.200E+00 0.00000E+00
 2.400E+00 0.00000E+00
 2.600E+00 0.00000E+00
 2.800E+00 0.00000E+00
 3.000E+00 0.00000E+00
 3.200E+00 0.00000E+00
 3.400E+00 0.00000E+00
 3.600E+00 0.00000E+00
 3.800E+00 0.00000E+00
 4.000E+00 0.00000E+00
 4.200E+00 3.76418E+01
 4.400E+00 5.11438E+01
 4.600E+00 5.65173E+01
 4.800E+00 5.70381E+01
 5.000E+00 5.56233E+01
 5.500E+00 5.11879E+01
 6.000E+00 4.83240E+01
 6.500E+00 4.70620E+01
 7.000E+00 4.72669E+01
 7.500E+00 4.85576E+01
 8.000E+00 4.88347E+01
 8.500E+00 4.56210E+01
 9.000E+00 3.90621E+01
 9.500E+00 3.14876E+01
 1.000E+01 2.43718E+01
 1.100E+01 1.41382E+01
 1.200E+01 9.14729E+00
 1.300E+01 6.99014E+00
 1.400E+01 6.01113E+00
 1.500E+01 5.50298E+00
 1.600E+01 5.16028E+00
 1.700E+01 4.93296E+00
 1.800E+01 4.67226E+00
 1.900E+01 4.45144E+00
 2.000E+01 4.25872E+00
 2.100E+01 4.08592E+00
 2.200E+01 3.90100E+00
 2.300E+01 3.74651E+00
 2.400E+01 3.56177E+00
 2.500E+01 3.41233E+00
 2.600E+01 3.26533E+00
 2.700E+01 3.13790E+00
 2.800E+01 3.02661E+00
 2.900E+01 2.91070E+00
 3.000E+01 2.79464E+00
