# n + 208Pb: Gamma-ray intensity - 208Pb: Level 12 --> Level  4 - gamma energy    0.416896
# E-initial  =   4.125347 E-final=   3.708451
# E-threshold= 4.14535E+00
# # energies =    67
#    E           xs
 1.00000E-11 0.00000E+00
 2.53000E-08 0.00000E+00
 2.00000E-07 0.00000E+00
 1.00000E-06 0.00000E+00
 1.00000E-03 0.00000E+00
 2.00000E-03 0.00000E+00
 5.00000E-03 0.00000E+00
 1.00000E-02 0.00000E+00
 2.00000E-02 0.00000E+00
 5.00000E-02 0.00000E+00
 1.00000E-01 0.00000E+00
 2.00000E-01 0.00000E+00
 3.00000E-01 0.00000E+00
 4.00000E-01 0.00000E+00
 5.00000E-01 0.00000E+00
 7.50000E-01 0.00000E+00
 1.00000E+00 0.00000E+00
 1.20000E+00 0.00000E+00
 1.40000E+00 0.00000E+00
 1.60000E+00 0.00000E+00
 1.80000E+00 0.00000E+00
 2.00000E+00 0.00000E+00
 2.20000E+00 0.00000E+00
 2.40000E+00 0.00000E+00
 2.60000E+00 0.00000E+00
 2.80000E+00 0.00000E+00
 3.00000E+00 0.00000E+00
 3.20000E+00 0.00000E+00
 3.40000E+00 0.00000E+00
 3.60000E+00 0.00000E+00
 3.80000E+00 0.00000E+00
 4.00000E+00 0.00000E+00
 4.20000E+00 7.37099E-01
 4.40000E+00 1.66170E+00
 4.60000E+00 2.18411E+00
 4.80000E+00 2.46321E+00
 5.00000E+00 2.55752E+00
 5.50000E+00 2.50289E+00
 6.00000E+00 2.40716E+00
 6.50000E+00 2.34463E+00
 7.00000E+00 2.32584E+00
 7.50000E+00 2.35225E+00
 8.00000E+00 2.33690E+00
 8.50000E+00 2.18132E+00
 9.00000E+00 1.89669E+00
 9.50000E+00 1.56968E+00
 1.00000E+01 1.26183E+00
 1.10000E+01 8.15396E-01
 1.20000E+01 5.94350E-01
 1.30000E+01 4.94041E-01
 1.40000E+01 4.43923E-01
 1.50000E+01 4.12295E-01
 1.60000E+01 3.87929E-01
 1.70000E+01 3.69894E-01
 1.80000E+01 3.52620E-01
 1.90000E+01 3.37870E-01
 2.00000E+01 3.24661E-01
 2.10000E+01 3.11844E-01
 2.20000E+01 2.98916E-01
 2.30000E+01 2.86670E-01
 2.40000E+01 2.74992E-01
 2.50000E+01 2.63404E-01
 2.60000E+01 2.53382E-01
 2.70000E+01 2.44991E-01
 2.80000E+01 2.36757E-01
 2.90000E+01 2.29312E-01
 3.00000E+01 2.21989E-01
