# n + 208Pb: Gamma-ray intensity - 208Pb: Level 13 --> Level  1 - gamma energy    1.491450
# E-initial  =   4.106000 E-final=   2.614550
# E-threshold= 4.12591E+00
# # energies = 67
#    E         xs
 1.000E-11 0.00000E+00
 2.530E-08 0.00000E+00
 2.000E-07 0.00000E+00
 1.000E-06 0.00000E+00
 1.000E-03 0.00000E+00
 2.000E-03 0.00000E+00
 5.000E-03 0.00000E+00
 1.000E-02 0.00000E+00
 2.000E-02 0.00000E+00
 5.000E-02 0.00000E+00
 1.000E-01 0.00000E+00
 2.000E-01 0.00000E+00
 3.000E-01 0.00000E+00
 4.000E-01 0.00000E+00
 5.000E-01 0.00000E+00
 7.500E-01 0.00000E+00
 1.000E+00 0.00000E+00
 1.200E+00 0.00000E+00
 1.400E+00 0.00000E+00
 1.600E+00 0.00000E+00
 1.800E+00 0.00000E+00
 2.000E+00 0.00000E+00
 2.200E+00 0.00000E+00
 2.400E+00 0.00000E+00
 2.600E+00 0.00000E+00
 2.800E+00 0.00000E+00
 3.000E+00 0.00000E+00
 3.200E+00 0.00000E+00
 3.400E+00 0.00000E+00
 3.600E+00 0.00000E+00
 3.800E+00 0.00000E+00
 4.000E+00 0.00000E+00
 4.200E+00 1.97303E+01
 4.400E+00 3.53249E+01
 4.600E+00 3.75474E+01
 4.800E+00 3.42928E+01
 5.000E+00 3.00959E+01
 5.500E+00 2.31895E+01
 6.000E+00 2.04236E+01
 6.500E+00 1.89715E+01
 7.000E+00 1.80300E+01
 7.500E+00 1.72968E+01
 8.000E+00 1.50372E+01
 8.500E+00 1.18153E+01
 9.000E+00 8.86959E+00
 9.500E+00 6.60640E+00
 1.000E+01 4.88774E+00
 1.100E+01 2.97599E+00
 1.200E+01 2.17921E+00
 1.300E+01 1.78964E+00
 1.400E+01 1.59413E+00
 1.500E+01 1.47639E+00
 1.600E+01 1.40494E+00
 1.700E+01 1.37627E+00
 1.800E+01 1.33707E+00
 1.900E+01 1.29401E+00
 2.000E+01 1.27301E+00
 2.100E+01 1.24014E+00
 2.200E+01 1.21669E+00
 2.300E+01 1.17886E+00
 2.400E+01 1.15274E+00
 2.500E+01 1.12468E+00
 2.600E+01 1.08246E+00
 2.700E+01 1.05514E+00
 2.800E+01 1.02929E+00
 2.900E+01 1.01203E+00
 3.000E+01 9.82766E-01
