# n + 208Pb: Gamma-ray intensity - 207Pb: Level 10 --> Level  3 - gamma energy    1.568630
# E-initial  =   3.202000 E-final=   1.633370
# E-threshold= 1.06211E+01
# # energies = 67
#    E         xs
 1.000E-11 0.00000E+00
 2.530E-08 0.00000E+00
 2.000E-07 0.00000E+00
 1.000E-06 0.00000E+00
 1.000E-03 0.00000E+00
 2.000E-03 0.00000E+00
 5.000E-03 0.00000E+00
 1.000E-02 0.00000E+00
 2.000E-02 0.00000E+00
 5.000E-02 0.00000E+00
 1.000E-01 0.00000E+00
 2.000E-01 0.00000E+00
 3.000E-01 0.00000E+00
 4.000E-01 0.00000E+00
 5.000E-01 0.00000E+00
 7.500E-01 0.00000E+00
 1.000E+00 0.00000E+00
 1.200E+00 0.00000E+00
 1.400E+00 0.00000E+00
 1.600E+00 0.00000E+00
 1.800E+00 0.00000E+00
 2.000E+00 0.00000E+00
 2.200E+00 0.00000E+00
 2.400E+00 0.00000E+00
 2.600E+00 0.00000E+00
 2.800E+00 0.00000E+00
 3.000E+00 0.00000E+00
 3.200E+00 0.00000E+00
 3.400E+00 0.00000E+00
 3.600E+00 0.00000E+00
 3.800E+00 0.00000E+00
 4.000E+00 0.00000E+00
 4.200E+00 0.00000E+00
 4.400E+00 0.00000E+00
 4.600E+00 0.00000E+00
 4.800E+00 0.00000E+00
 5.000E+00 0.00000E+00
 5.500E+00 0.00000E+00
 6.000E+00 0.00000E+00
 6.500E+00 0.00000E+00
 7.000E+00 0.00000E+00
 7.500E+00 0.00000E+00
 8.000E+00 0.00000E+00
 8.500E+00 0.00000E+00
 9.000E+00 0.00000E+00
 9.500E+00 0.00000E+00
 1.000E+01 0.00000E+00
 1.100E+01 4.71856E-01
 1.200E+01 7.17787E+00
 1.300E+01 1.63085E+01
 1.400E+01 2.23439E+01
 1.500E+01 2.44850E+01
 1.600E+01 2.48515E+01
 1.700E+01 2.48935E+01
 1.800E+01 2.45391E+01
 1.900E+01 2.28925E+01
 2.000E+01 2.00261E+01
 2.100E+01 1.67770E+01
 2.200E+01 1.40509E+01
 2.300E+01 1.21268E+01
 2.400E+01 1.08046E+01
 2.500E+01 9.98668E+00
 2.600E+01 9.49109E+00
 2.700E+01 9.05864E+00
 2.800E+01 8.86906E+00
 2.900E+01 8.54110E+00
 3.000E+01 8.37930E+00
