# n + 208Pb: Gamma-ray intensity - 208Pb: Level 20 --> Level  1 - gamma energy    1.709430
# E-initial  =   4.323950 E-final=   2.614520
# E-threshold= 4.34492E+00
# # energies = 67
#    E         xs
 1.000E-11 0.00000E+00
 2.530E-08 0.00000E+00
 2.000E-07 0.00000E+00
 1.000E-06 0.00000E+00
 1.000E-03 0.00000E+00
 2.000E-03 0.00000E+00
 5.000E-03 0.00000E+00
 1.000E-02 0.00000E+00
 2.000E-02 0.00000E+00
 5.000E-02 0.00000E+00
 1.000E-01 0.00000E+00
 2.000E-01 0.00000E+00
 3.000E-01 0.00000E+00
 4.000E-01 0.00000E+00
 5.000E-01 0.00000E+00
 7.500E-01 0.00000E+00
 1.000E+00 0.00000E+00
 1.200E+00 0.00000E+00
 1.400E+00 0.00000E+00
 1.600E+00 0.00000E+00
 1.800E+00 0.00000E+00
 2.000E+00 0.00000E+00
 2.200E+00 0.00000E+00
 2.400E+00 0.00000E+00
 2.600E+00 0.00000E+00
 2.800E+00 0.00000E+00
 3.000E+00 0.00000E+00
 3.200E+00 0.00000E+00
 3.400E+00 0.00000E+00
 3.600E+00 0.00000E+00
 3.800E+00 0.00000E+00
 4.000E+00 0.00000E+00
 4.200E+00 0.00000E+00
 4.400E+00 5.12394E-02
 4.600E+00 1.99207E-01
 4.800E+00 2.84795E-01
 5.000E+00 3.31462E-01
 5.500E+00 4.08949E-01
 6.000E+00 4.75713E-01
 6.500E+00 4.98010E-01
 7.000E+00 4.87727E-01
 7.500E+00 4.73921E-01
 8.000E+00 4.44084E-01
 8.500E+00 3.91070E-01
 9.000E+00 3.29836E-01
 9.500E+00 2.66763E-01
 1.000E+01 2.12561E-01
 1.100E+01 1.36764E-01
 1.200E+01 9.96611E-02
 1.300E+01 8.22263E-02
 1.400E+01 7.36771E-02
 1.500E+01 6.82581E-02
 1.600E+01 6.39813E-02
 1.700E+01 6.07699E-02
 1.800E+01 5.74294E-02
 1.900E+01 5.45621E-02
 2.000E+01 5.19230E-02
 2.100E+01 4.95886E-02
 2.200E+01 4.72614E-02
 2.300E+01 4.53486E-02
 2.400E+01 4.35856E-02
 2.500E+01 4.15389E-02
 2.600E+01 3.96505E-02
 2.700E+01 3.83514E-02
 2.800E+01 3.72106E-02
 2.900E+01 3.61148E-02
 3.000E+01 3.50753E-02
