# n + 208Pb: Gamma-ray intensity - 208Pb: Level  9 --> Level  2 - gamma energy    0.839260
# E-initial  =   4.037000 E-final=   3.197740
# E-threshold= 4.05658E+00
# # energies = 67
#    E         xs
 1.000E-11 0.00000E+00
 2.530E-08 0.00000E+00
 2.000E-07 0.00000E+00
 1.000E-06 0.00000E+00
 1.000E-03 0.00000E+00
 2.000E-03 0.00000E+00
 5.000E-03 0.00000E+00
 1.000E-02 0.00000E+00
 2.000E-02 0.00000E+00
 5.000E-02 0.00000E+00
 1.000E-01 0.00000E+00
 2.000E-01 0.00000E+00
 3.000E-01 0.00000E+00
 4.000E-01 0.00000E+00
 5.000E-01 0.00000E+00
 7.500E-01 0.00000E+00
 1.000E+00 0.00000E+00
 1.200E+00 0.00000E+00
 1.400E+00 0.00000E+00
 1.600E+00 0.00000E+00
 1.800E+00 0.00000E+00
 2.000E+00 0.00000E+00
 2.200E+00 0.00000E+00
 2.400E+00 0.00000E+00
 2.600E+00 0.00000E+00
 2.800E+00 0.00000E+00
 3.000E+00 0.00000E+00
 3.200E+00 0.00000E+00
 3.400E+00 0.00000E+00
 3.600E+00 0.00000E+00
 3.800E+00 0.00000E+00
 4.000E+00 0.00000E+00
 4.200E+00 1.75516E+00
 4.400E+00 4.76949E+00
 4.600E+00 7.49509E+00
 4.800E+00 9.75191E+00
 5.000E+00 1.18722E+01
 5.500E+00 1.80361E+01
 6.000E+00 2.62476E+01
 6.500E+00 3.65358E+01
 7.000E+00 4.88406E+01
 7.500E+00 6.28995E+01
 8.000E+00 7.74301E+01
 8.500E+00 9.09020E+01
 9.000E+00 1.00041E+02
 9.500E+00 1.01723E+02
 1.000E+01 9.65991E+01
 1.100E+01 7.46007E+01
 1.200E+01 5.18729E+01
 1.300E+01 3.80359E+01
 1.400E+01 3.01007E+01
 1.500E+01 2.62796E+01
 1.600E+01 2.42641E+01
 1.700E+01 2.34321E+01
 1.800E+01 2.24272E+01
 1.900E+01 2.17711E+01
 2.000E+01 2.10283E+01
 2.100E+01 2.03386E+01
 2.200E+01 1.92194E+01
 2.300E+01 1.87291E+01
 2.400E+01 1.78475E+01
 2.500E+01 1.72200E+01
 2.600E+01 1.64168E+01
 2.700E+01 1.58398E+01
 2.800E+01 1.54914E+01
 2.900E+01 1.46510E+01
 3.000E+01 1.42353E+01
