# n + 208Pb: Gamma-ray intensity - 208Pb: Level  8 --> Level  1 - gamma energy    1.381150
# E-initial  =   3.995700 E-final=   2.614550
# E-threshold= 4.01508E+00
# # energies = 67
#    E         xs
 1.000E-11 0.00000E+00
 2.530E-08 0.00000E+00
 2.000E-07 0.00000E+00
 1.000E-06 0.00000E+00
 1.000E-03 0.00000E+00
 2.000E-03 0.00000E+00
 5.000E-03 0.00000E+00
 1.000E-02 0.00000E+00
 2.000E-02 0.00000E+00
 5.000E-02 0.00000E+00
 1.000E-01 0.00000E+00
 2.000E-01 0.00000E+00
 3.000E-01 0.00000E+00
 4.000E-01 0.00000E+00
 5.000E-01 0.00000E+00
 7.500E-01 0.00000E+00
 1.000E+00 0.00000E+00
 1.200E+00 0.00000E+00
 1.400E+00 0.00000E+00
 1.600E+00 0.00000E+00
 1.800E+00 0.00000E+00
 2.000E+00 0.00000E+00
 2.200E+00 0.00000E+00
 2.400E+00 0.00000E+00
 2.600E+00 0.00000E+00
 2.800E+00 0.00000E+00
 3.000E+00 0.00000E+00
 3.200E+00 0.00000E+00
 3.400E+00 0.00000E+00
 3.600E+00 0.00000E+00
 3.800E+00 0.00000E+00
 4.000E+00 0.00000E+00
 4.200E+00 3.75692E+01
 4.400E+00 5.14073E+01
 4.600E+00 5.79489E+01
 4.800E+00 5.99421E+01
 5.000E+00 5.99137E+01
 5.500E+00 5.77508E+01
 6.000E+00 5.56888E+01
 6.500E+00 5.44930E+01
 7.000E+00 5.44981E+01
 7.500E+00 5.56225E+01
 8.000E+00 5.57247E+01
 8.500E+00 5.25898E+01
 9.000E+00 4.60784E+01
 9.500E+00 3.82649E+01
 1.000E+01 3.04791E+01
 1.100E+01 1.83219E+01
 1.200E+01 1.16770E+01
 1.300E+01 8.46937E+00
 1.400E+01 6.92675E+00
 1.500E+01 6.13029E+00
 1.600E+01 5.64204E+00
 1.700E+01 5.34798E+00
 1.800E+01 5.02382E+00
 1.900E+01 4.76539E+00
 2.000E+01 4.55023E+00
 2.100E+01 4.35314E+00
 2.200E+01 4.18459E+00
 2.300E+01 4.00522E+00
 2.400E+01 3.81509E+00
 2.500E+01 3.65907E+00
 2.600E+01 3.48838E+00
 2.700E+01 3.36097E+00
 2.800E+01 3.21903E+00
 2.900E+01 3.12268E+00
 3.000E+01 2.99415E+00
