# n + 208Pb: Gamma-ray intensity - 208Pb: Level 28 --> Level 10 - gamma energy    0.647190
# E-initial  =   4.698320 E-final=   4.051130
# E-threshold= 4.72111E+00
# # energies = 67
#    E         xs
 1.000E-11 0.00000E+00
 2.530E-08 0.00000E+00
 2.000E-07 0.00000E+00
 1.000E-06 0.00000E+00
 1.000E-03 0.00000E+00
 2.000E-03 0.00000E+00
 5.000E-03 0.00000E+00
 1.000E-02 0.00000E+00
 2.000E-02 0.00000E+00
 5.000E-02 0.00000E+00
 1.000E-01 0.00000E+00
 2.000E-01 0.00000E+00
 3.000E-01 0.00000E+00
 4.000E-01 0.00000E+00
 5.000E-01 0.00000E+00
 7.500E-01 0.00000E+00
 1.000E+00 0.00000E+00
 1.200E+00 0.00000E+00
 1.400E+00 0.00000E+00
 1.600E+00 0.00000E+00
 1.800E+00 0.00000E+00
 2.000E+00 0.00000E+00
 2.200E+00 0.00000E+00
 2.400E+00 0.00000E+00
 2.600E+00 0.00000E+00
 2.800E+00 0.00000E+00
 3.000E+00 0.00000E+00
 3.200E+00 0.00000E+00
 3.400E+00 0.00000E+00
 3.600E+00 0.00000E+00
 3.800E+00 0.00000E+00
 4.000E+00 0.00000E+00
 4.200E+00 0.00000E+00
 4.400E+00 0.00000E+00
 4.600E+00 0.00000E+00
 4.800E+00 2.64461E-01
 5.000E+00 5.53387E-01
 5.500E+00 7.75637E-01
 6.000E+00 6.95937E-01
 6.500E+00 6.18992E-01
 7.000E+00 5.58748E-01
 7.500E+00 5.04924E-01
 8.000E+00 4.32092E-01
 8.500E+00 3.45101E-01
 9.000E+00 2.67147E-01
 9.500E+00 1.97651E-01
 1.000E+01 1.42944E-01
 1.100E+01 7.50817E-02
 1.200E+01 4.40484E-02
 1.300E+01 2.97429E-02
 1.400E+01 2.37099E-02
 1.500E+01 2.05885E-02
 1.600E+01 1.88639E-02
 1.700E+01 1.81117E-02
 1.800E+01 1.70263E-02
 1.900E+01 1.60316E-02
 2.000E+01 1.56314E-02
 2.100E+01 1.51322E-02
 2.200E+01 1.43695E-02
 2.300E+01 1.39989E-02
 2.400E+01 1.34653E-02
 2.500E+01 1.27906E-02
 2.600E+01 1.23809E-02
 2.700E+01 1.21250E-02
 2.800E+01 1.18299E-02
 2.900E+01 1.14205E-02
 3.000E+01 1.11539E-02
