# n + 208Pb: Gamma-ray intensity - 209Pb: Level  3 --> Level  0 - gamma energy    1.567090
# E-initial  =   1.567090 E-final=   0.000000
# E-threshold= 0.00000E+00
# # energies = 67
#    E         xs
 1.000E-11 0.00000E+00
 2.530E-08 0.00000E+00
 2.000E-07 0.00000E+00
 1.000E-06 2.38180E+02
 1.000E-03 1.27326E+00
 2.000E-03 7.58486E-01
 5.000E-03 4.13748E-01
 1.000E-02 2.47667E-01
 2.000E-02 1.38587E-01
 5.000E-02 7.41580E-02
 1.000E-01 5.00326E-02
 2.000E-01 3.60276E-02
 3.000E-01 3.14604E-02
 4.000E-01 2.97876E-02
 5.000E-01 2.95654E-02
 7.500E-01 3.23745E-02
 1.000E+00 3.83414E-02
 1.200E+00 4.50881E-02
 1.400E+00 5.32392E-02
 1.600E+00 6.36292E-02
 1.800E+00 7.61347E-02
 2.000E+00 9.09912E-02
 2.200E+00 1.10180E-01
 2.400E+00 1.32035E-01
 2.600E+00 1.56421E-01
 2.800E+00 1.37416E-01
 3.000E+00 1.37608E-01
 3.200E+00 1.47808E-01
 3.400E+00 1.55309E-01
 3.600E+00 1.65847E-01
 3.800E+00 1.70559E-01
 4.000E+00 1.80669E-01
 4.200E+00 1.70104E-01
 4.400E+00 1.38338E-01
 4.600E+00 1.21092E-01
 4.800E+00 1.20417E-01
 5.000E+00 1.10643E-01
 5.500E+00 9.21272E-02
 6.000E+00 8.20262E-02
 6.500E+00 8.30247E-02
 7.000E+00 9.43660E-02
 7.500E+00 1.17985E-01
 8.000E+00 1.65502E-01
 8.500E+00 2.46680E-01
 9.000E+00 3.70593E-01
 9.500E+00 5.21706E-01
 1.000E+01 6.27346E-01
 1.100E+01 5.76104E-01
 1.200E+01 3.98431E-01
 1.300E+01 2.70444E-01
 1.400E+01 2.04266E-01
 1.500E+01 1.64607E-01
 1.600E+01 1.39041E-01
 1.700E+01 1.25936E-01
 1.800E+01 1.13877E-01
 1.900E+01 1.08485E-01
 2.000E+01 1.02198E-01
 2.100E+01 9.20682E-02
 2.200E+01 8.75749E-02
 2.300E+01 8.30034E-02
 2.400E+01 7.70082E-02
 2.500E+01 7.31796E-02
 2.600E+01 6.75836E-02
 2.700E+01 6.46415E-02
 2.800E+01 6.07126E-02
 2.900E+01 5.77815E-02
 3.000E+01 5.59242E-02
