# n + 208Pb: Gamma-ray intensity - 208Pb: Level 17 --> Level  2 - gamma energy    0.982670
# E-initial  =   4.180410 E-final=   3.197740
# E-threshold= 4.20068E+00
# # energies = 67
#    E         xs
 1.000E-11 0.00000E+00
 2.530E-08 0.00000E+00
 2.000E-07 0.00000E+00
 1.000E-06 0.00000E+00
 1.000E-03 0.00000E+00
 2.000E-03 0.00000E+00
 5.000E-03 0.00000E+00
 1.000E-02 0.00000E+00
 2.000E-02 0.00000E+00
 5.000E-02 0.00000E+00
 1.000E-01 0.00000E+00
 2.000E-01 0.00000E+00
 3.000E-01 0.00000E+00
 4.000E-01 0.00000E+00
 5.000E-01 0.00000E+00
 7.500E-01 0.00000E+00
 1.000E+00 0.00000E+00
 1.200E+00 0.00000E+00
 1.400E+00 0.00000E+00
 1.600E+00 0.00000E+00
 1.800E+00 0.00000E+00
 2.000E+00 0.00000E+00
 2.200E+00 0.00000E+00
 2.400E+00 0.00000E+00
 2.600E+00 0.00000E+00
 2.800E+00 0.00000E+00
 3.000E+00 0.00000E+00
 3.200E+00 0.00000E+00
 3.400E+00 0.00000E+00
 3.600E+00 0.00000E+00
 3.800E+00 0.00000E+00
 4.000E+00 0.00000E+00
 4.200E+00 0.00000E+00
 4.400E+00 3.20845E+01
 4.600E+00 4.52644E+01
 4.800E+00 5.17028E+01
 5.000E+00 5.37577E+01
 5.500E+00 5.15936E+01
 6.000E+00 4.84613E+01
 6.500E+00 4.65311E+01
 7.000E+00 4.56391E+01
 7.500E+00 4.58779E+01
 8.000E+00 4.55429E+01
 8.500E+00 4.27220E+01
 9.000E+00 3.72331E+01
 9.500E+00 3.07801E+01
 1.000E+01 2.44196E+01
 1.100E+01 1.46002E+01
 1.200E+01 9.26495E+00
 1.300E+01 6.68303E+00
 1.400E+01 5.44084E+00
 1.500E+01 4.80524E+00
 1.600E+01 4.42463E+00
 1.700E+01 4.20834E+00
 1.800E+01 3.96484E+00
 1.900E+01 3.77289E+00
 2.000E+01 3.61490E+00
 2.100E+01 3.47081E+00
 2.200E+01 3.36111E+00
 2.300E+01 3.22611E+00
 2.400E+01 3.08422E+00
 2.500E+01 2.97271E+00
 2.600E+01 2.84103E+00
 2.700E+01 2.74478E+00
 2.800E+01 2.62580E+00
 2.900E+01 2.55900E+00
 3.000E+01 2.45684E+00
