# n + 208Pb: Gamma-ray intensity - 208Pb: Level  8 --> Level  1 - gamma energy    1.381150
# E-initial  =   3.995700 E-final=   2.614550
# E-threshold= 4.01508E+00
# # energies = 67
#    E         xs
 1.000E-11 0.00000E+00
 2.530E-08 0.00000E+00
 2.000E-07 0.00000E+00
 1.000E-06 0.00000E+00
 1.000E-03 0.00000E+00
 2.000E-03 0.00000E+00
 5.000E-03 0.00000E+00
 1.000E-02 0.00000E+00
 2.000E-02 0.00000E+00
 5.000E-02 0.00000E+00
 1.000E-01 0.00000E+00
 2.000E-01 0.00000E+00
 3.000E-01 0.00000E+00
 4.000E-01 0.00000E+00
 5.000E-01 0.00000E+00
 7.500E-01 0.00000E+00
 1.000E+00 0.00000E+00
 1.200E+00 0.00000E+00
 1.400E+00 0.00000E+00
 1.600E+00 0.00000E+00
 1.800E+00 0.00000E+00
 2.000E+00 0.00000E+00
 2.200E+00 0.00000E+00
 2.400E+00 0.00000E+00
 2.600E+00 0.00000E+00
 2.800E+00 0.00000E+00
 3.000E+00 0.00000E+00
 3.200E+00 0.00000E+00
 3.400E+00 0.00000E+00
 3.600E+00 0.00000E+00
 3.800E+00 0.00000E+00
 4.000E+00 0.00000E+00
 4.200E+00 3.75692E+01
 4.400E+00 5.14073E+01
 4.600E+00 5.79489E+01
 4.800E+00 5.99387E+01
 5.000E+00 5.99037E+01
 5.500E+00 5.77213E+01
 6.000E+00 5.56527E+01
 6.500E+00 5.44499E+01
 7.000E+00 5.44462E+01
 7.500E+00 5.55621E+01
 8.000E+00 5.56616E+01
 8.500E+00 5.25393E+01
 9.000E+00 4.60510E+01
 9.500E+00 3.82650E+01
 1.000E+01 3.05108E+01
 1.100E+01 1.83997E+01
 1.200E+01 1.17769E+01
 1.300E+01 8.57906E+00
 1.400E+01 7.04016E+00
 1.500E+01 6.24328E+00
 1.600E+01 5.75114E+00
 1.700E+01 5.45483E+00
 1.800E+01 5.12859E+00
 1.900E+01 4.86718E+00
 2.000E+01 4.64830E+00
 2.100E+01 4.44606E+00
 2.200E+01 4.27656E+00
 2.300E+01 4.09521E+00
 2.400E+01 3.90257E+00
 2.500E+01 3.74389E+00
 2.600E+01 3.56650E+00
 2.700E+01 3.43941E+00
 2.800E+01 3.29856E+00
 2.900E+01 3.20288E+00
 3.000E+01 3.07351E+00
