# n + 208Pb: Gamma-ray intensity - 209Pb: Level  2 --> Level  1 - gamma energy    0.644200
# E-initial  =   1.423000 E-final=   0.778800
# E-threshold= 0.00000E+00
# # energies =    67
#    E           xs
 1.00000E-11 0.00000E+00
 2.53000E-08 0.00000E+00
 2.00000E-07 0.00000E+00
 1.00000E-06 0.00000E+00
 1.00000E-03 0.00000E+00
 2.00000E-03 0.00000E+00
 5.00000E-03 0.00000E+00
 1.00000E-02 0.00000E+00
 2.00000E-02 0.00000E+00
 5.00000E-02 1.18610E-10
 1.00000E-01 3.64376E-09
 2.00000E-01 3.59348E-08
 3.00000E-01 3.59928E-06
 4.00000E-01 1.00075E-05
 5.00000E-01 1.83148E-05
 7.50000E-01 4.14317E-05
 1.00000E+00 2.34082E-04
 1.20000E+00 4.20893E-04
 1.40000E+00 7.91886E-04
 1.60000E+00 1.24326E-03
 1.80000E+00 1.86510E-03
 2.00000E+00 2.83511E-03
 2.20000E+00 4.08055E-03
 2.40000E+00 5.76241E-03
 2.60000E+00 8.00528E-03
 2.80000E+00 1.01060E-02
 3.00000E+00 1.12465E-02
 3.20000E+00 1.23761E-02
 3.40000E+00 5.96318E-03
 3.60000E+00 4.32571E-03
 3.80000E+00 3.46331E-03
 4.00000E+00 2.58827E-03
 4.20000E+00 1.35547E-03
 4.40000E+00 1.03924E-03
 4.60000E+00 9.06743E-04
 4.80000E+00 1.44351E-03
 5.00000E+00 1.43509E-03
 5.50000E+00 1.78618E-03
 6.00000E+00 2.31906E-03
 6.50000E+00 3.20186E-03
 7.00000E+00 4.58966E-03
 7.50000E+00 6.85386E-03
 8.00000E+00 1.04957E-02
 8.50000E+00 1.61002E-02
 9.00000E+00 2.26957E-02
 9.50000E+00 2.71160E-02
 1.00000E+01 2.78640E-02
 1.10000E+01 2.68068E-02
 1.20000E+01 2.89192E-02
 1.30000E+01 3.17674E-02
 1.40000E+01 3.25431E-02
 1.50000E+01 2.99775E-02
 1.60000E+01 2.49776E-02
 1.70000E+01 2.05308E-02
 1.80000E+01 1.69738E-02
 1.90000E+01 1.50112E-02
 2.00000E+01 1.35263E-02
 2.10000E+01 1.17640E-02
 2.20000E+01 1.07858E-02
 2.30000E+01 9.60820E-03
 2.40000E+01 8.72954E-03
 2.50000E+01 8.12012E-03
 2.60000E+01 7.61149E-03
 2.70000E+01 7.18981E-03
 2.80000E+01 6.84593E-03
 2.90000E+01 6.57740E-03
 3.00000E+01 6.34433E-03
