# n + 208Pb: Gamma-ray intensity - 208Pb: Level  9 --> Level  2 - gamma energy    0.839730
# E-initial  =   4.037440 E-final=   3.197710
# E-threshold= 4.05702E+00
# # energies = 67
#    E         xs
 1.000E-11 0.00000E+00
 2.530E-08 0.00000E+00
 2.000E-07 0.00000E+00
 1.000E-06 0.00000E+00
 1.000E-03 0.00000E+00
 2.000E-03 0.00000E+00
 5.000E-03 0.00000E+00
 1.000E-02 0.00000E+00
 2.000E-02 0.00000E+00
 5.000E-02 0.00000E+00
 1.000E-01 0.00000E+00
 2.000E-01 0.00000E+00
 3.000E-01 0.00000E+00
 4.000E-01 0.00000E+00
 5.000E-01 0.00000E+00
 7.500E-01 0.00000E+00
 1.000E+00 0.00000E+00
 1.200E+00 0.00000E+00
 1.400E+00 0.00000E+00
 1.600E+00 0.00000E+00
 1.800E+00 0.00000E+00
 2.000E+00 0.00000E+00
 2.200E+00 0.00000E+00
 2.400E+00 0.00000E+00
 2.600E+00 0.00000E+00
 2.800E+00 0.00000E+00
 3.000E+00 0.00000E+00
 3.200E+00 0.00000E+00
 3.400E+00 0.00000E+00
 3.600E+00 0.00000E+00
 3.800E+00 0.00000E+00
 4.000E+00 0.00000E+00
 4.200E+00 2.35248E+00
 4.400E+00 6.25282E+00
 4.600E+00 9.00173E+00
 4.800E+00 1.09229E+01
 5.000E+00 1.26027E+01
 5.500E+00 1.77524E+01
 6.000E+00 2.45874E+01
 6.500E+00 3.31616E+01
 7.000E+00 4.32715E+01
 7.500E+00 5.42549E+01
 8.000E+00 6.50763E+01
 8.500E+00 7.41784E+01
 9.000E+00 7.83300E+01
 9.500E+00 7.63141E+01
 1.000E+01 6.89754E+01
 1.100E+01 4.90853E+01
 1.200E+01 3.22313E+01
 1.300E+01 2.26976E+01
 1.400E+01 1.80213E+01
 1.500E+01 1.56811E+01
 1.600E+01 1.44675E+01
 1.700E+01 1.37871E+01
 1.800E+01 1.30551E+01
 1.900E+01 1.24175E+01
 2.000E+01 1.20636E+01
 2.100E+01 1.15610E+01
 2.200E+01 1.10716E+01
 2.300E+01 1.06700E+01
 2.400E+01 1.02207E+01
 2.500E+01 9.56586E+00
 2.600E+01 9.11023E+00
 2.700E+01 8.66363E+00
 2.800E+01 8.28975E+00
 2.900E+01 7.96517E+00
 3.000E+01 7.67190E+00
