# n + 208Pb: Gamma-ray intensity - 209Pb: Level  4 --> Level  3 - gamma energy    0.465130
# E-initial  =   2.032220 E-final=   1.567090
# E-threshold= 0.00000E+00
# # energies = 67
#    E         xs
 1.000E-11 0.00000E+00
 2.530E-08 0.00000E+00
 2.000E-07 0.00000E+00
 1.000E-06 2.00614E+02
 1.000E-03 6.86058E-01
 2.000E-03 4.02426E-01
 5.000E-03 2.11049E-01
 1.000E-02 1.22990E-01
 2.000E-02 6.77205E-02
 5.000E-02 3.09539E-02
 1.000E-01 1.80236E-02
 2.000E-01 1.15365E-02
 3.000E-01 9.63717E-03
 4.000E-01 8.96736E-03
 5.000E-01 8.82954E-03
 7.500E-01 9.64070E-03
 1.000E+00 1.13816E-02
 1.200E+00 1.33138E-02
 1.400E+00 1.59232E-02
 1.600E+00 1.87623E-02
 1.800E+00 2.24921E-02
 2.000E+00 2.69382E-02
 2.200E+00 3.21581E-02
 2.400E+00 3.82788E-02
 2.600E+00 4.70093E-02
 2.800E+00 4.48492E-02
 3.000E+00 4.59595E-02
 3.200E+00 5.04802E-02
 3.400E+00 5.34125E-02
 3.600E+00 5.88886E-02
 3.800E+00 6.10415E-02
 4.000E+00 6.61512E-02
 4.200E+00 6.36931E-02
 4.400E+00 5.11188E-02
 4.600E+00 4.26882E-02
 4.800E+00 3.76632E-02
 5.000E+00 3.28532E-02
 5.500E+00 2.92286E-02
 6.000E+00 2.76113E-02
 6.500E+00 3.09390E-02
 7.000E+00 3.71381E-02
 7.500E+00 5.10707E-02
 8.000E+00 7.48287E-02
 8.500E+00 1.15571E-01
 9.000E+00 1.81940E-01
 9.500E+00 2.67864E-01
 1.000E+01 3.32933E-01
 1.100E+01 3.04305E-01
 1.200E+01 2.06003E-01
 1.300E+01 1.32590E-01
 1.400E+01 1.01472E-01
 1.500E+01 8.27370E-02
 1.600E+01 7.05779E-02
 1.700E+01 6.19979E-02
 1.800E+01 5.28703E-02
 1.900E+01 4.92438E-02
 2.000E+01 4.61695E-02
 2.100E+01 4.30737E-02
 2.200E+01 4.03967E-02
 2.300E+01 3.89208E-02
 2.400E+01 3.76014E-02
 2.500E+01 3.63758E-02
 2.600E+01 3.54556E-02
 2.700E+01 3.30777E-02
 2.800E+01 3.14626E-02
 2.900E+01 3.08798E-02
 3.000E+01 3.05040E-02
