# n + 208Pb: Gamma-ray intensity - 209Pb: Level  3 --> Level  0 - gamma energy    1.567090
# E-initial  =   1.567090 E-final=   0.000000
# E-threshold= 0.00000E+00
# # energies = 66
#    E         xs
 1.000E-11 0.00000E+00
 2.530E-08 0.00000E+00
 1.000E-06 0.00000E+00
 1.000E-03 0.00000E+00
 2.000E-03 0.00000E+00
 5.000E-03 0.00000E+00
 1.000E-02 0.00000E+00
 2.000E-02 0.00000E+00
 5.000E-02 0.00000E+00
 1.000E-01 0.00000E+00
 2.000E-01 0.00000E+00
 3.000E-01 0.00000E+00
 4.000E-01 0.00000E+00
 5.000E-01 0.00000E+00
 7.500E-01 0.00000E+00
 1.000E+00 3.54909E-02
 1.200E+00 3.82115E-02
 1.400E+00 4.21825E-02
 1.600E+00 4.63032E-02
 1.800E+00 5.28573E-02
 2.000E+00 6.04886E-02
 2.200E+00 6.95532E-02
 2.400E+00 8.05872E-02
 2.600E+00 9.70229E-02
 2.800E+00 8.26438E-02
 3.000E+00 8.34233E-02
 3.200E+00 9.10778E-02
 3.400E+00 9.67024E-02
 3.600E+00 1.04950E-01
 3.800E+00 1.11043E-01
 4.000E+00 1.20591E-01
 4.200E+00 1.14571E-01
 4.400E+00 9.37702E-02
 4.600E+00 7.88753E-02
 4.800E+00 6.85058E-02
 5.000E+00 6.03711E-02
 5.500E+00 5.16618E-02
 6.000E+00 4.85942E-02
 6.500E+00 5.36745E-02
 7.000E+00 6.59868E-02
 7.500E+00 9.24335E-02
 8.000E+00 1.40063E-01
 8.500E+00 2.23260E-01
 9.000E+00 3.58287E-01
 9.500E+00 5.28891E-01
 1.000E+01 6.52701E-01
 1.100E+01 6.21309E-01
 1.200E+01 4.38843E-01
 1.300E+01 2.77114E-01
 1.400E+01 2.04678E-01
 1.500E+01 1.64882E-01
 1.600E+01 1.40248E-01
 1.700E+01 1.23489E-01
 1.800E+01 1.04487E-01
 1.900E+01 9.47689E-02
 2.000E+01 8.82923E-02
 2.100E+01 8.40360E-02
 2.200E+01 8.05790E-02
 2.300E+01 7.80175E-02
 2.400E+01 7.54831E-02
 2.500E+01 7.36067E-02
 2.600E+01 7.18968E-02
 2.700E+01 6.65243E-02
 2.800E+01 6.31330E-02
 2.900E+01 6.11410E-02
 3.000E+01 5.97208E-02
