# n + 208Pb: Gamma-ray intensity - 208Pb: Level 17 --> Level  2 - gamma energy    0.982670
# E-initial  =   4.180410 E-final=   3.197740
# E-threshold= 4.20068E+00
# # energies = 67
#    E         xs
 1.000E-11 0.00000E+00
 2.530E-08 0.00000E+00
 2.000E-07 0.00000E+00
 1.000E-06 0.00000E+00
 1.000E-03 0.00000E+00
 2.000E-03 0.00000E+00
 5.000E-03 0.00000E+00
 1.000E-02 0.00000E+00
 2.000E-02 0.00000E+00
 5.000E-02 0.00000E+00
 1.000E-01 0.00000E+00
 2.000E-01 0.00000E+00
 3.000E-01 0.00000E+00
 4.000E-01 0.00000E+00
 5.000E-01 0.00000E+00
 7.500E-01 0.00000E+00
 1.000E+00 0.00000E+00
 1.200E+00 0.00000E+00
 1.400E+00 0.00000E+00
 1.600E+00 0.00000E+00
 1.800E+00 0.00000E+00
 2.000E+00 0.00000E+00
 2.200E+00 0.00000E+00
 2.400E+00 0.00000E+00
 2.600E+00 0.00000E+00
 2.800E+00 0.00000E+00
 3.000E+00 0.00000E+00
 3.200E+00 0.00000E+00
 3.400E+00 0.00000E+00
 3.600E+00 0.00000E+00
 3.800E+00 0.00000E+00
 4.000E+00 0.00000E+00
 4.200E+00 0.00000E+00
 4.400E+00 3.09537E+01
 4.600E+00 3.90974E+01
 4.800E+00 3.94257E+01
 5.000E+00 3.67581E+01
 5.500E+00 3.05647E+01
 6.000E+00 2.84961E+01
 6.500E+00 2.83060E+01
 7.000E+00 2.88754E+01
 7.500E+00 2.98144E+01
 8.000E+00 2.98690E+01
 8.500E+00 2.75350E+01
 9.000E+00 2.33187E+01
 9.500E+00 1.86692E+01
 1.000E+01 1.44723E+01
 1.100E+01 8.74470E+00
 1.200E+01 6.01149E+00
 1.300E+01 4.80264E+00
 1.400E+01 4.21658E+00
 1.500E+01 3.91404E+00
 1.600E+01 3.71823E+00
 1.700E+01 3.61458E+00
 1.800E+01 3.47990E+00
 1.900E+01 3.37146E+00
 2.000E+01 3.26849E+00
 2.100E+01 3.18262E+00
 2.200E+01 3.08298E+00
 2.300E+01 2.99875E+00
 2.400E+01 2.89566E+00
 2.500E+01 2.80469E+00
 2.600E+01 2.70742E+00
 2.700E+01 2.62516E+00
 2.800E+01 2.54951E+00
 2.900E+01 2.47860E+00
 3.000E+01 2.41402E+00
