# n + 208Pb: Gamma-ray intensity - 208Pb: Level 20 --> Level  5 - gamma energy    0.310200
# E-initial  =   4.230000 E-final=   3.919800
# E-threshold= 4.25052E+00
# # energies = 67
#    E         xs
 1.000E-11 0.00000E+00
 2.530E-08 0.00000E+00
 2.000E-07 0.00000E+00
 1.000E-06 0.00000E+00
 1.000E-03 0.00000E+00
 2.000E-03 0.00000E+00
 5.000E-03 0.00000E+00
 1.000E-02 0.00000E+00
 2.000E-02 0.00000E+00
 5.000E-02 0.00000E+00
 1.000E-01 0.00000E+00
 2.000E-01 0.00000E+00
 3.000E-01 0.00000E+00
 4.000E-01 0.00000E+00
 5.000E-01 0.00000E+00
 7.500E-01 0.00000E+00
 1.000E+00 0.00000E+00
 1.200E+00 0.00000E+00
 1.400E+00 0.00000E+00
 1.600E+00 0.00000E+00
 1.800E+00 0.00000E+00
 2.000E+00 0.00000E+00
 2.200E+00 0.00000E+00
 2.400E+00 0.00000E+00
 2.600E+00 0.00000E+00
 2.800E+00 0.00000E+00
 3.000E+00 0.00000E+00
 3.200E+00 0.00000E+00
 3.400E+00 0.00000E+00
 3.600E+00 0.00000E+00
 3.800E+00 0.00000E+00
 4.000E+00 0.00000E+00
 4.200E+00 0.00000E+00
 4.400E+00 1.77596E+01
 4.600E+00 2.45325E+01
 4.800E+00 2.52182E+01
 5.000E+00 2.33133E+01
 5.500E+00 1.81462E+01
 6.000E+00 1.57891E+01
 6.500E+00 1.47859E+01
 7.000E+00 1.43082E+01
 7.500E+00 1.41169E+01
 8.000E+00 1.31935E+01
 8.500E+00 1.11698E+01
 9.000E+00 8.81134E+00
 9.500E+00 6.71182E+00
 1.000E+01 5.02115E+00
 1.100E+01 2.95008E+00
 1.200E+01 2.03107E+00
 1.300E+01 1.60882E+00
 1.400E+01 1.40313E+00
 1.500E+01 1.29879E+00
 1.600E+01 1.23853E+00
 1.700E+01 1.21784E+00
 1.800E+01 1.18305E+00
 1.900E+01 1.15300E+00
 2.000E+01 1.12900E+00
 2.100E+01 1.10971E+00
 2.200E+01 1.08539E+00
 2.300E+01 1.06209E+00
 2.400E+01 1.03492E+00
 2.500E+01 1.00762E+00
 2.600E+01 9.76476E-01
 2.700E+01 9.49562E-01
 2.800E+01 9.23963E-01
 2.900E+01 9.05981E-01
 3.000E+01 8.85176E-01
