# n + 208Pb: Gamma-ray intensity - 208Pb: Level 29 --> Level  8 - gamma energy    0.713289
# E-initial  =   4.708727 E-final=   3.995438
# E-threshold= 4.73156E+00
# # energies =    67
#    E           xs
 1.00000E-11 0.00000E+00
 2.53000E-08 0.00000E+00
 2.00000E-07 0.00000E+00
 1.00000E-06 0.00000E+00
 1.00000E-03 0.00000E+00
 2.00000E-03 0.00000E+00
 5.00000E-03 0.00000E+00
 1.00000E-02 0.00000E+00
 2.00000E-02 0.00000E+00
 5.00000E-02 0.00000E+00
 1.00000E-01 0.00000E+00
 2.00000E-01 0.00000E+00
 3.00000E-01 0.00000E+00
 4.00000E-01 0.00000E+00
 5.00000E-01 0.00000E+00
 7.50000E-01 0.00000E+00
 1.00000E+00 0.00000E+00
 1.20000E+00 0.00000E+00
 1.40000E+00 0.00000E+00
 1.60000E+00 0.00000E+00
 1.80000E+00 0.00000E+00
 2.00000E+00 0.00000E+00
 2.20000E+00 0.00000E+00
 2.40000E+00 0.00000E+00
 2.60000E+00 0.00000E+00
 2.80000E+00 0.00000E+00
 3.00000E+00 0.00000E+00
 3.20000E+00 0.00000E+00
 3.40000E+00 0.00000E+00
 3.60000E+00 0.00000E+00
 3.80000E+00 0.00000E+00
 4.00000E+00 0.00000E+00
 4.20000E+00 0.00000E+00
 4.40000E+00 0.00000E+00
 4.60000E+00 0.00000E+00
 4.80000E+00 4.46404E-01
 5.00000E+00 9.69313E-01
 5.50000E+00 1.46983E+00
 6.00000E+00 1.38740E+00
 6.50000E+00 1.28073E+00
 7.00000E+00 1.20529E+00
 7.50000E+00 1.14648E+00
 8.00000E+00 1.08267E+00
 8.50000E+00 9.70137E-01
 9.00000E+00 8.08132E-01
 9.50000E+00 6.38204E-01
 1.00000E+01 4.84842E-01
 1.10000E+01 2.70918E-01
 1.20000E+01 1.69367E-01
 1.30000E+01 1.25471E-01
 1.40000E+01 1.05964E-01
 1.50000E+01 9.59409E-02
 1.60000E+01 8.93553E-02
 1.70000E+01 8.53034E-02
 1.80000E+01 8.10788E-02
 1.90000E+01 7.75143E-02
 2.00000E+01 7.46537E-02
 2.10000E+01 7.19127E-02
 2.20000E+01 6.90595E-02
 2.30000E+01 6.64371E-02
 2.40000E+01 6.37083E-02
 2.50000E+01 6.10583E-02
 2.60000E+01 5.86127E-02
 2.70000E+01 5.67996E-02
 2.80000E+01 5.44672E-02
 2.90000E+01 5.27646E-02
 3.00000E+01 5.10930E-02
