# n + 208Pb: Gamma-ray intensity - 208Pb: Level 19 --> Level  4 - gamma energy    0.588110
# E-initial  =   4.296560 E-final=   3.708450
# E-threshold= 4.31740E+00
# # energies = 67
#    E         xs
 1.000E-11 0.00000E+00
 2.530E-08 0.00000E+00
 2.000E-07 0.00000E+00
 1.000E-06 0.00000E+00
 1.000E-03 0.00000E+00
 2.000E-03 0.00000E+00
 5.000E-03 0.00000E+00
 1.000E-02 0.00000E+00
 2.000E-02 0.00000E+00
 5.000E-02 0.00000E+00
 1.000E-01 0.00000E+00
 2.000E-01 0.00000E+00
 3.000E-01 0.00000E+00
 4.000E-01 0.00000E+00
 5.000E-01 0.00000E+00
 7.500E-01 0.00000E+00
 1.000E+00 0.00000E+00
 1.200E+00 0.00000E+00
 1.400E+00 0.00000E+00
 1.600E+00 0.00000E+00
 1.800E+00 0.00000E+00
 2.000E+00 0.00000E+00
 2.200E+00 0.00000E+00
 2.400E+00 0.00000E+00
 2.600E+00 0.00000E+00
 2.800E+00 0.00000E+00
 3.000E+00 0.00000E+00
 3.200E+00 0.00000E+00
 3.400E+00 0.00000E+00
 3.600E+00 0.00000E+00
 3.800E+00 0.00000E+00
 4.000E+00 0.00000E+00
 4.200E+00 0.00000E+00
 4.400E+00 1.00726E+01
 4.600E+00 1.91924E+01
 4.800E+00 2.54377E+01
 5.000E+00 2.87728E+01
 5.500E+00 2.95882E+01
 6.000E+00 2.78872E+01
 6.500E+00 2.64821E+01
 7.000E+00 2.54736E+01
 7.500E+00 2.50236E+01
 8.000E+00 2.43791E+01
 8.500E+00 2.25466E+01
 9.000E+00 1.94779E+01
 9.500E+00 1.59546E+01
 1.000E+01 1.25680E+01
 1.100E+01 7.45366E+00
 1.200E+01 4.76788E+00
 1.300E+01 3.49336E+00
 1.400E+01 2.89504E+00
 1.500E+01 2.57903E+00
 1.600E+01 2.38215E+00
 1.700E+01 2.24881E+00
 1.800E+01 2.12192E+00
 1.900E+01 2.01370E+00
 2.000E+01 1.92782E+00
 2.100E+01 1.84176E+00
 2.200E+01 1.75956E+00
 2.300E+01 1.68277E+00
 2.400E+01 1.60627E+00
 2.500E+01 1.53002E+00
 2.600E+01 1.45681E+00
 2.700E+01 1.40688E+00
 2.800E+01 1.35892E+00
 2.900E+01 1.31569E+00
 3.000E+01 1.27184E+00
