# n + 208Pb: Gamma-ray intensity - 208Pb: Level 21 --> Level 14 - gamma energy    0.178260
# E-initial  =   4.358670 E-final=   4.180410
# E-threshold= 4.37981E+00
# # energies = 67
#    E         xs
 1.000E-11 0.00000E+00
 2.530E-08 0.00000E+00
 2.000E-07 0.00000E+00
 1.000E-06 0.00000E+00
 1.000E-03 0.00000E+00
 2.000E-03 0.00000E+00
 5.000E-03 0.00000E+00
 1.000E-02 0.00000E+00
 2.000E-02 0.00000E+00
 5.000E-02 0.00000E+00
 1.000E-01 0.00000E+00
 2.000E-01 0.00000E+00
 3.000E-01 0.00000E+00
 4.000E-01 0.00000E+00
 5.000E-01 0.00000E+00
 7.500E-01 0.00000E+00
 1.000E+00 0.00000E+00
 1.200E+00 0.00000E+00
 1.400E+00 0.00000E+00
 1.600E+00 0.00000E+00
 1.800E+00 0.00000E+00
 2.000E+00 0.00000E+00
 2.200E+00 0.00000E+00
 2.400E+00 0.00000E+00
 2.600E+00 0.00000E+00
 2.800E+00 0.00000E+00
 3.000E+00 0.00000E+00
 3.200E+00 0.00000E+00
 3.400E+00 0.00000E+00
 3.600E+00 0.00000E+00
 3.800E+00 0.00000E+00
 4.000E+00 0.00000E+00
 4.200E+00 0.00000E+00
 4.400E+00 1.44488E-01
 4.600E+00 5.13101E-01
 4.800E+00 7.26987E-01
 5.000E+00 8.25934E-01
 5.500E+00 8.12418E-01
 6.000E+00 7.27065E-01
 6.500E+00 6.59300E-01
 7.000E+00 6.04157E-01
 7.500E+00 5.65653E-01
 8.000E+00 5.15889E-01
 8.500E+00 4.42120E-01
 9.000E+00 3.59838E-01
 9.500E+00 2.77450E-01
 1.000E+01 2.07011E-01
 1.100E+01 1.10492E-01
 1.200E+01 6.41011E-02
 1.300E+01 4.26910E-02
 1.400E+01 3.31600E-02
 1.500E+01 2.83889E-02
 1.600E+01 2.56332E-02
 1.700E+01 2.39796E-02
 1.800E+01 2.22630E-02
 1.900E+01 2.07995E-02
 2.000E+01 1.97381E-02
 2.100E+01 1.86905E-02
 2.200E+01 1.76784E-02
 2.300E+01 1.68589E-02
 2.400E+01 1.59622E-02
 2.500E+01 1.50294E-02
 2.600E+01 1.41476E-02
 2.700E+01 1.36282E-02
 2.800E+01 1.31310E-02
 2.900E+01 1.27102E-02
 3.000E+01 1.22782E-02
