# n + 208Pb: Gamma-ray intensity - 208Pb: Level 20 --> Level  3 - gamma energy    0.848870
# E-initial  =   4.323950 E-final=   3.475080
# E-threshold= 4.34492E+00
# # energies = 67
#    E         xs
 1.000E-11 0.00000E+00
 2.530E-08 0.00000E+00
 2.000E-07 0.00000E+00
 1.000E-06 0.00000E+00
 1.000E-03 0.00000E+00
 2.000E-03 0.00000E+00
 5.000E-03 0.00000E+00
 1.000E-02 0.00000E+00
 2.000E-02 0.00000E+00
 5.000E-02 0.00000E+00
 1.000E-01 0.00000E+00
 2.000E-01 0.00000E+00
 3.000E-01 0.00000E+00
 4.000E-01 0.00000E+00
 5.000E-01 0.00000E+00
 7.500E-01 0.00000E+00
 1.000E+00 0.00000E+00
 1.200E+00 0.00000E+00
 1.400E+00 0.00000E+00
 1.600E+00 0.00000E+00
 1.800E+00 0.00000E+00
 2.000E+00 0.00000E+00
 2.200E+00 0.00000E+00
 2.400E+00 0.00000E+00
 2.600E+00 0.00000E+00
 2.800E+00 0.00000E+00
 3.000E+00 0.00000E+00
 3.200E+00 0.00000E+00
 3.400E+00 0.00000E+00
 3.600E+00 0.00000E+00
 3.800E+00 0.00000E+00
 4.000E+00 0.00000E+00
 4.200E+00 0.00000E+00
 4.400E+00 2.43187E-01
 4.600E+00 9.45457E-01
 4.800E+00 1.35166E+00
 5.000E+00 1.57315E+00
 5.500E+00 1.94091E+00
 6.000E+00 2.25778E+00
 6.500E+00 2.36360E+00
 7.000E+00 2.31480E+00
 7.500E+00 2.24927E+00
 8.000E+00 2.10766E+00
 8.500E+00 1.85605E+00
 9.000E+00 1.56543E+00
 9.500E+00 1.26608E+00
 1.000E+01 1.00884E+00
 1.100E+01 6.49097E-01
 1.200E+01 4.73001E-01
 1.300E+01 3.90254E-01
 1.400E+01 3.49679E-01
 1.500E+01 3.23959E-01
 1.600E+01 3.03661E-01
 1.700E+01 2.88420E-01
 1.800E+01 2.72565E-01
 1.900E+01 2.58957E-01
 2.000E+01 2.46431E-01
 2.100E+01 2.35352E-01
 2.200E+01 2.24307E-01
 2.300E+01 2.15229E-01
 2.400E+01 2.06861E-01
 2.500E+01 1.97148E-01
 2.600E+01 1.88185E-01
 2.700E+01 1.82019E-01
 2.800E+01 1.76605E-01
 2.900E+01 1.71404E-01
 3.000E+01 1.66471E-01
