# n + 208Pb: Gamma-ray intensity - 208Pb: Level  7 --> Level  4 - gamma energy    0.252520
# E-initial  =   3.960960 E-final=   3.708440
# E-threshold= 3.98017E+00
# # energies = 67
#    E         xs
 1.000E-11 0.00000E+00
 2.530E-08 0.00000E+00
 2.000E-07 0.00000E+00
 1.000E-06 0.00000E+00
 1.000E-03 0.00000E+00
 2.000E-03 0.00000E+00
 5.000E-03 0.00000E+00
 1.000E-02 0.00000E+00
 2.000E-02 0.00000E+00
 5.000E-02 0.00000E+00
 1.000E-01 0.00000E+00
 2.000E-01 0.00000E+00
 3.000E-01 0.00000E+00
 4.000E-01 0.00000E+00
 5.000E-01 0.00000E+00
 7.500E-01 0.00000E+00
 1.000E+00 0.00000E+00
 1.200E+00 0.00000E+00
 1.400E+00 0.00000E+00
 1.600E+00 0.00000E+00
 1.800E+00 0.00000E+00
 2.000E+00 0.00000E+00
 2.200E+00 0.00000E+00
 2.400E+00 0.00000E+00
 2.600E+00 0.00000E+00
 2.800E+00 0.00000E+00
 3.000E+00 0.00000E+00
 3.200E+00 0.00000E+00
 3.400E+00 0.00000E+00
 3.600E+00 0.00000E+00
 3.800E+00 0.00000E+00
 4.000E+00 8.95099E+00
 4.200E+00 2.87027E+01
 4.400E+00 3.56403E+01
 4.600E+00 3.56490E+01
 4.800E+00 3.32581E+01
 5.000E+00 3.09964E+01
 5.500E+00 2.84472E+01
 6.000E+00 2.81640E+01
 6.500E+00 2.85564E+01
 7.000E+00 2.93327E+01
 7.500E+00 3.02766E+01
 8.000E+00 3.02888E+01
 8.500E+00 2.79346E+01
 9.000E+00 2.36556E+01
 9.500E+00 1.88653E+01
 1.000E+01 1.45046E+01
 1.100E+01 8.52286E+00
 1.200E+01 5.68952E+00
 1.300E+01 4.47242E+00
 1.400E+01 3.89237E+00
 1.500E+01 3.58615E+00
 1.600E+01 3.37682E+00
 1.700E+01 3.25021E+00
 1.800E+01 3.09122E+00
 1.900E+01 2.96396E+00
 2.000E+01 2.84245E+00
 2.100E+01 2.73905E+00
 2.200E+01 2.62621E+00
 2.300E+01 2.53527E+00
 2.400E+01 2.42285E+00
 2.500E+01 2.32938E+00
 2.600E+01 2.23103E+00
 2.700E+01 2.15168E+00
 2.800E+01 2.08267E+00
 2.900E+01 2.01055E+00
 3.000E+01 1.94574E+00
