# n + 208Pb: Gamma-ray intensity - 208Pb: Level  7 --> Level  4 - gamma energy    0.252520
# E-initial  =   3.960960 E-final=   3.708440
# E-threshold= 3.98017E+00
# # energies = 67
#    E         xs
 1.000E-11 0.00000E+00
 2.530E-08 0.00000E+00
 2.000E-07 0.00000E+00
 1.000E-06 0.00000E+00
 1.000E-03 0.00000E+00
 2.000E-03 0.00000E+00
 5.000E-03 0.00000E+00
 1.000E-02 0.00000E+00
 2.000E-02 0.00000E+00
 5.000E-02 0.00000E+00
 1.000E-01 0.00000E+00
 2.000E-01 0.00000E+00
 3.000E-01 0.00000E+00
 4.000E-01 0.00000E+00
 5.000E-01 0.00000E+00
 7.500E-01 0.00000E+00
 1.000E+00 0.00000E+00
 1.200E+00 0.00000E+00
 1.400E+00 0.00000E+00
 1.600E+00 0.00000E+00
 1.800E+00 0.00000E+00
 2.000E+00 0.00000E+00
 2.200E+00 0.00000E+00
 2.400E+00 0.00000E+00
 2.600E+00 0.00000E+00
 2.800E+00 0.00000E+00
 3.000E+00 0.00000E+00
 3.200E+00 0.00000E+00
 3.400E+00 0.00000E+00
 3.600E+00 0.00000E+00
 3.800E+00 0.00000E+00
 4.000E+00 3.97879E+00
 4.200E+00 1.27566E+01
 4.400E+00 1.64429E+01
 4.600E+00 1.80453E+01
 4.800E+00 1.84579E+01
 5.000E+00 1.83905E+01
 5.500E+00 1.78063E+01
 6.000E+00 1.72551E+01
 6.500E+00 1.69463E+01
 7.000E+00 1.70045E+01
 7.500E+00 1.73946E+01
 8.000E+00 1.74470E+01
 8.500E+00 1.64760E+01
 9.000E+00 1.44413E+01
 9.500E+00 1.19920E+01
 1.000E+01 9.54712E+00
 1.100E+01 5.72234E+00
 1.200E+01 3.62969E+00
 1.300E+01 2.62064E+00
 1.400E+01 2.13648E+00
 1.500E+01 1.88738E+00
 1.600E+01 1.73498E+00
 1.700E+01 1.64302E+00
 1.800E+01 1.54133E+00
 1.900E+01 1.46036E+00
 2.000E+01 1.39297E+00
 2.100E+01 1.33137E+00
 2.200E+01 1.27804E+00
 2.300E+01 1.22237E+00
 2.400E+01 1.16302E+00
 2.500E+01 1.11390E+00
 2.600E+01 1.06081E+00
 2.700E+01 1.02130E+00
 2.800E+01 9.77817E-01
 2.900E+01 9.47663E-01
 3.000E+01 9.08006E-01
