# n + 208Pb: Gamma-ray intensity - 208Pb: Level  9 --> Level  2 - gamma energy    0.839732
# E-initial  =   4.037443 E-final=   3.197711
# E-threshold= 4.05702E+00
# # energies =    67
#    E           xs
 1.00000E-11 0.00000E+00
 2.53000E-08 0.00000E+00
 2.00000E-07 0.00000E+00
 1.00000E-06 0.00000E+00
 1.00000E-03 0.00000E+00
 2.00000E-03 0.00000E+00
 5.00000E-03 0.00000E+00
 1.00000E-02 0.00000E+00
 2.00000E-02 0.00000E+00
 5.00000E-02 0.00000E+00
 1.00000E-01 0.00000E+00
 2.00000E-01 0.00000E+00
 3.00000E-01 0.00000E+00
 4.00000E-01 0.00000E+00
 5.00000E-01 0.00000E+00
 7.50000E-01 0.00000E+00
 1.00000E+00 0.00000E+00
 1.20000E+00 0.00000E+00
 1.40000E+00 0.00000E+00
 1.60000E+00 0.00000E+00
 1.80000E+00 0.00000E+00
 2.00000E+00 0.00000E+00
 2.20000E+00 0.00000E+00
 2.40000E+00 0.00000E+00
 2.60000E+00 0.00000E+00
 2.80000E+00 0.00000E+00
 3.00000E+00 0.00000E+00
 3.20000E+00 0.00000E+00
 3.40000E+00 0.00000E+00
 3.60000E+00 0.00000E+00
 3.80000E+00 0.00000E+00
 4.00000E+00 0.00000E+00
 4.20000E+00 2.35442E+00
 4.40000E+00 6.25512E+00
 4.60000E+00 9.00403E+00
 4.80000E+00 1.09249E+01
 5.00000E+00 1.26278E+01
 5.50000E+00 1.79626E+01
 6.00000E+00 2.51737E+01
 6.50000E+00 3.42843E+01
 7.00000E+00 4.49686E+01
 7.50000E+00 5.64954E+01
 8.00000E+00 6.77971E+01
 8.50000E+00 7.69984E+01
 9.00000E+00 8.03796E+01
 9.50000E+00 7.66714E+01
 1.00000E+01 6.73245E+01
 1.10000E+01 4.50114E+01
 1.20000E+01 2.79829E+01
 1.30000E+01 1.91882E+01
 1.40000E+01 1.52595E+01
 1.50000E+01 1.34019E+01
 1.60000E+01 1.24783E+01
 1.70000E+01 1.19742E+01
 1.80000E+01 1.13140E+01
 1.90000E+01 1.07179E+01
 2.00000E+01 1.04019E+01
 2.10000E+01 9.93503E+00
 2.20000E+01 9.49125E+00
 2.30000E+01 9.11317E+00
 2.40000E+01 8.70139E+00
 2.50000E+01 8.08634E+00
 2.60000E+01 7.69969E+00
 2.70000E+01 7.24726E+00
 2.80000E+01 6.86498E+00
 2.90000E+01 6.56859E+00
 3.00000E+01 6.29582E+00
