# n +  28Si   : (n,n')            Total
# Q-value    = 0.00000E+00
# E-threshold= 1.84317E+00
# # energies =    50
#     E          xs       gamma xs  xs/res.prod.xs
 1.00000E-01 0.00000E+00 0.00000E+00 0.00000E+00
 2.00000E-01 0.00000E+00 0.00000E+00 0.00000E+00
 4.00000E-01 0.00000E+00 0.00000E+00 0.00000E+00
 6.00000E-01 0.00000E+00 0.00000E+00 0.00000E+00
 8.00000E-01 0.00000E+00 0.00000E+00 0.00000E+00
 1.00000E+00 0.00000E+00 0.00000E+00 0.00000E+00
 1.20000E+00 0.00000E+00 0.00000E+00 0.00000E+00
 1.40000E+00 0.00000E+00 0.00000E+00 0.00000E+00
 1.60000E+00 0.00000E+00 0.00000E+00 0.00000E+00
 1.80000E+00 0.00000E+00 0.00000E+00 0.00000E+00
 2.00000E+00 2.73429E+02 2.73429E+02 9.99991E-01
 2.20000E+00 4.25768E+02 4.25768E+02 9.99994E-01
 2.40000E+00 4.98300E+02 4.98300E+02 9.99994E-01
 2.60000E+00 5.37745E+02 5.37745E+02 9.99993E-01
 2.80000E+00 5.62420E+02 5.62420E+02 9.99991E-01
 3.00000E+00 5.80012E+02 5.80012E+02 9.99989E-01
 3.20000E+00 5.93947E+02 5.93947E+02 9.99987E-01
 3.40000E+00 6.05829E+02 6.05829E+02 9.99983E-01
 3.60000E+00 6.16435E+02 6.16435E+02 9.99980E-01
 3.80000E+00 6.26136E+02 6.26136E+02 9.99974E-01
 4.00000E+00 6.35105E+02 6.35105E+02 9.99969E-01
 4.20000E+00 6.43419E+02 6.43419E+02 9.99963E-01
 4.40000E+00 6.51089E+02 6.51089E+02 9.99954E-01
 4.60000E+00 6.58100E+02 6.58100E+02 9.99946E-01
 4.80000E+00 6.66832E+02 6.73216E+02 9.99937E-01
 5.00000E+00 6.94556E+02 7.56211E+02 9.99933E-01
 5.20000E+00 7.15301E+02 8.18289E+02 9.99926E-01
 5.40000E+00 7.35960E+02 8.84528E+02 9.99919E-01
 5.60000E+00 7.43520E+02 9.19925E+02 9.99909E-01
 5.80000E+00 7.40095E+02 9.31920E+02 9.99897E-01
 6.00000E+00 7.28077E+02 9.27758E+02 9.99883E-01
 6.20000E+00 7.09413E+02 9.12206E+02 9.99865E-01
 6.40000E+00 6.85865E+02 8.88685E+02 9.99844E-01
 6.60000E+00 6.69167E+02 8.90650E+02 9.99829E-01
 6.80000E+00 6.57694E+02 9.08596E+02 9.99816E-01
 7.00000E+00 6.40956E+02 9.09385E+02 9.99799E-01
 7.20000E+00 6.30881E+02 9.15975E+02 9.99787E-01
 7.40000E+00 6.30520E+02 9.31194E+02 9.99786E-01
 7.60000E+00 6.19255E+02 9.24743E+02 9.99776E-01
 7.80000E+00 6.16525E+02 9.24435E+02 9.99772E-01
 8.00000E+00 6.11911E+02 9.16609E+02 9.99763E-01
 8.50000E+00 5.90632E+02 9.03180E+02 9.99730E-01
 9.00000E+00 5.73460E+02 9.11369E+02 9.99700E-01
 9.50000E+00 5.60045E+02 9.23582E+02 9.99668E-01
 1.00000E+01 5.46414E+02 9.33422E+02 9.99622E-01
 1.20000E+01 5.24326E+02 1.00948E+03 9.99464E-01
 1.40000E+01 3.82891E+02 7.76286E+02 9.99054E-01
 1.60000E+01 2.36753E+02 4.77461E+02 9.98206E-01
 1.80000E+01 1.57352E+02 3.10041E+02 9.97074E-01
 2.00000E+01 1.17488E+02 2.24477E+02 9.95888E-01
