# n + 209Bi: alpha    DDX spectrum
# E-incident =   63.000
# Angle      =  70.000
# # energies =   230
#  E-out    Total       Direct    Pre-equil.  Mult. preeq  Compound
   0.700 0.00000E+00 0.00000E+00 0.00000E+00 0.00000E+00 0.00000E+00
   0.800 0.00000E+00 0.00000E+00 0.00000E+00 0.00000E+00 0.00000E+00
   0.900 0.00000E+00 0.00000E+00 0.00000E+00 0.00000E+00 0.00000E+00
   1.000 0.00000E+00 0.00000E+00 0.00000E+00 0.00000E+00 0.00000E+00
   1.100 0.00000E+00 0.00000E+00 0.00000E+00 0.00000E+00 0.00000E+00
   1.200 0.00000E+00 0.00000E+00 0.00000E+00 0.00000E+00 0.00000E+00
   1.300 0.00000E+00 0.00000E+00 0.00000E+00 0.00000E+00 0.00000E+00
   1.400 0.00000E+00 0.00000E+00 0.00000E+00 0.00000E+00 0.00000E+00
   1.500 0.00000E+00 0.00000E+00 0.00000E+00 0.00000E+00 0.00000E+00
   1.600 0.00000E+00 0.00000E+00 0.00000E+00 0.00000E+00 0.00000E+00
   1.700 0.00000E+00 0.00000E+00 0.00000E+00 0.00000E+00 0.00000E+00
   1.800 0.00000E+00 0.00000E+00 0.00000E+00 0.00000E+00 0.00000E+00
   1.900 0.00000E+00 0.00000E+00 0.00000E+00 0.00000E+00 0.00000E+00
   2.000 0.00000E+00 0.00000E+00 0.00000E+00 0.00000E+00 0.00000E+00
   2.200 0.00000E+00 0.00000E+00 0.00000E+00 0.00000E+00 0.00000E+00
   2.400 0.00000E+00 0.00000E+00 0.00000E+00 0.00000E+00 0.00000E+00
   2.600 0.00000E+00 0.00000E+00 0.00000E+00 0.00000E+00 0.00000E+00
   2.800 0.00000E+00 0.00000E+00 0.00000E+00 0.00000E+00 0.00000E+00
   3.000 1.40130E-45 0.00000E+00 1.40130E-45 0.00000E+00 0.00000E+00
   3.200 2.52234E-43 0.00000E+00 2.52234E-43 0.00000E+00 0.00000E+00
   3.400 1.38158E-40 0.00000E+00 1.38158E-40 0.00000E+00 0.00000E+00
   3.600 1.54593E-38 0.00000E+00 1.54593E-38 0.00000E+00 0.00000E+00
   3.800 8.43882E-37 0.00000E+00 8.43882E-37 0.00000E+00 0.00000E+00
   4.000 3.61503E-35 0.00000E+00 3.61503E-35 0.00000E+00 0.00000E+00
   4.500 1.13128E-31 0.00000E+00 1.13128E-31 0.00000E+00 0.00000E+00
   5.000 8.84642E-29 0.00000E+00 8.84642E-29 0.00000E+00 0.00000E+00
   5.500 2.63109E-26 0.00000E+00 2.63109E-26 0.00000E+00 0.00000E+00
   6.000 3.25361E-24 0.00000E+00 3.25361E-24 0.00000E+00 0.00000E+00
   6.500 2.95644E-22 0.00000E+00 2.95644E-22 0.00000E+00 0.00000E+00
   7.000 1.13476E-13 0.00000E+00 1.60935E-20 0.00000E+00 1.13476E-13
   7.500 3.15795E-11 0.00000E+00 6.26190E-19 0.00000E+00 3.15795E-11
   8.000 2.12097E-07 0.00000E+00 1.61445E-17 0.00000E+00 2.12097E-07
   8.500 1.48962E-06 0.00000E+00 2.75727E-16 0.00000E+00 1.48962E-06
   9.000 3.63025E-06 0.00000E+00 3.72618E-15 0.00000E+00 3.63025E-06
   9.500 4.10593E-06 0.00000E+00 4.19635E-14 0.00000E+00 4.10593E-06
  10.000 9.28108E-05 0.00000E+00 3.96067E-13 0.00000E+00 9.28108E-05
  10.500 2.56706E-04 0.00000E+00 3.17900E-12 0.00000E+00 2.56706E-04
  11.000 2.72787E-04 0.00000E+00 2.20881E-11 0.00000E+00 2.72787E-04
  11.500 3.19426E-04 0.00000E+00 1.35412E-10 0.00000E+00 3.19426E-04
  12.000 3.93964E-04 0.00000E+00 7.46040E-10 0.00000E+00 3.93963E-04
  12.500 5.13045E-04 0.00000E+00 3.75238E-09 0.00000E+00 5.13042E-04
  13.000 8.52376E-04 0.00000E+00 1.96184E-08 0.00000E+00 8.52357E-04
  13.500 1.83829E-03 0.00000E+00 8.91788E-08 0.00000E+00 1.83820E-03
  14.000 3.16126E-03 0.00000E+00 3.49084E-07 0.00000E+00 3.16091E-03
  14.500 3.89183E-03 0.00000E+00 1.21040E-06 0.00000E+00 3.89062E-03
  15.000 4.71637E-03 0.00000E+00 3.80006E-06 0.00000E+00 4.71257E-03
  15.500 6.02362E-03 0.00000E+00 1.10007E-05 0.00000E+00 6.01262E-03
  16.000 7.54404E-03 0.00000E+00 2.97763E-05 0.00000E+00 7.51427E-03
  16.500 1.15568E-02 0.00000E+00 7.60359E-05 0.00000E+00 1.14808E-02
  17.000 1.36919E-02 0.00000E+00 1.83867E-04 0.00000E+00 1.35080E-02
  17.500 1.68121E-02 0.00000E+00 4.15108E-04 0.00000E+00 1.63970E-02
  18.000 1.94760E-02 0.00000E+00 8.87205E-04 0.00000E+00 1.85888E-02
  18.500 2.23152E-02 0.00000E+00 1.78400E-03 0.00000E+00 2.05312E-02
  19.000 2.46875E-02 0.00000E+00 3.36191E-03 0.00000E+00 2.13255E-02
  19.500 2.74768E-02 0.00000E+00 5.90705E-03 0.00000E+00 2.15697E-02
  20.000 3.09702E-02 0.00000E+00 9.39388E-03 0.00000E+00 2.15763E-02
  21.000 3.97872E-02 0.00000E+00 1.91596E-02 0.00000E+00 2.06276E-02
  22.000 4.87904E-02 0.00000E+00 3.12101E-02 0.00000E+00 1.75803E-02
  23.000 5.72354E-02 0.00000E+00 4.34556E-02 0.00000E+00 1.37797E-02
  24.000 6.50102E-02 0.00000E+00 5.46867E-02 0.00000E+00 1.03235E-02
  25.000 7.04282E-02 0.00000E+00 6.31859E-02 0.00000E+00 7.24225E-03
  26.000 7.35898E-02 0.00000E+00 6.90969E-02 0.00000E+00 4.49289E-03
  27.000 7.69708E-02 0.00000E+00 7.56935E-02 0.00000E+00 1.27727E-03
  28.000 8.12097E-02 0.00000E+00 8.08746E-02 0.00000E+00 3.35108E-04
  29.000 8.49423E-02 0.00000E+00 8.47467E-02 0.00000E+00 1.95558E-04
  30.000 8.75264E-02 0.00000E+00 8.74210E-02 0.00000E+00 1.05406E-04
  31.000 8.90608E-02 0.00000E+00 8.90086E-02 0.00000E+00 5.22070E-05
  32.000 8.96311E-02 0.00000E+00 8.96185E-02 0.00000E+00 1.26739E-05
  33.000 8.93532E-02 0.00000E+00 8.93468E-02 0.00000E+00 6.41211E-06
  34.000 8.81479E-02 0.00000E+00 8.81448E-02 0.00000E+00 3.05912E-06
  35.000 8.61739E-02 0.00000E+00 8.61726E-02 0.00000E+00 1.30416E-06
  36.000 8.35996E-02 0.00000E+00 8.35991E-02 0.00000E+00 5.40239E-07
  37.000 8.04926E-02 0.00000E+00 8.04924E-02 0.00000E+00 2.14332E-07
  38.000 7.69176E-02 0.00000E+00 7.69174E-02 0.00000E+00 1.11064E-07
  39.000 7.29267E-02 0.00000E+00 7.29267E-02 0.00000E+00 4.14460E-08
  40.000 6.87211E-02 0.00000E+00 6.87211E-02 0.00000E+00 1.65484E-08
  42.000 6.00049E-02 0.00000E+00 6.00049E-02 0.00000E+00 2.23766E-09
  44.000 5.12371E-02 0.00000E+00 5.12371E-02 0.00000E+00 5.24480E-10
  46.000 4.27644E-02 0.00000E+00 4.27644E-02 0.00000E+00 2.05541E-12
  48.000 3.48511E-02 0.00000E+00 3.48511E-02 0.00000E+00 0.00000E+00
  50.000 2.76854E-02 0.00000E+00 2.76854E-02 0.00000E+00 0.00000E+00
  52.000 2.13875E-02 0.00000E+00 2.13875E-02 0.00000E+00 0.00000E+00
  54.000 1.60159E-02 0.00000E+00 1.60159E-02 0.00000E+00 0.00000E+00
  56.000 1.15757E-02 0.00000E+00 1.15757E-02 0.00000E+00 0.00000E+00
  58.000 8.02699E-03 0.00000E+00 8.02699E-03 0.00000E+00 0.00000E+00
  60.000 5.29501E-03 0.00000E+00 5.29501E-03 0.00000E+00 0.00000E+00
  62.000 3.28058E-03 0.00000E+00 3.28058E-03 0.00000E+00 0.00000E+00
  64.000 1.87026E-03 0.00000E+00 1.87026E-03 0.00000E+00 0.00000E+00
  66.000 9.46104E-04 0.00000E+00 9.46104E-04 0.00000E+00 0.00000E+00
  68.000 3.93681E-04 0.00000E+00 3.93681E-04 0.00000E+00 0.00000E+00
  68.100 3.78831E-04 2.97280E-06 3.75858E-04 0.00000E+00 0.00000E+00
  68.200 3.62683E-04 4.64872E-06 3.58035E-04 0.00000E+00 0.00000E+00
  68.300 3.47271E-04 7.06110E-06 3.40210E-04 0.00000E+00 0.00000E+00
  68.400 3.32804E-04 1.04173E-05 3.22387E-04 0.00000E+00 0.00000E+00
  68.500 3.19492E-04 1.49280E-05 3.04564E-04 0.00000E+00 0.00000E+00
  68.600 3.07519E-04 2.07784E-05 2.86741E-04 0.00000E+00 0.00000E+00
  68.700 2.97011E-04 2.80929E-05 2.68918E-04 0.00000E+00 0.00000E+00
  68.800 2.87988E-04 3.68951E-05 2.51093E-04 0.00000E+00 0.00000E+00
  68.900 2.80339E-04 4.70682E-05 2.33270E-04 0.00000E+00 0.00000E+00
  69.000 2.73779E-04 5.83317E-05 2.15447E-04 0.00000E+00 0.00000E+00
  69.100 2.67856E-04 7.02315E-05 1.97624E-04 0.00000E+00 0.00000E+00
  69.200 2.61961E-04 8.21604E-05 1.79801E-04 0.00000E+00 0.00000E+00
  69.300 2.55384E-04 9.34073E-05 1.61977E-04 0.00000E+00 0.00000E+00
  69.400 2.47383E-04 1.03229E-04 1.44153E-04 0.00000E+00 0.00000E+00
  69.500 2.37280E-04 1.10949E-04 1.26330E-04 0.00000E+00 0.00000E+00
  69.600 2.24557E-04 1.16050E-04 1.08507E-04 0.00000E+00 0.00000E+00
  69.700 2.08939E-04 1.18255E-04 9.06842E-05 0.00000E+00 0.00000E+00
  69.800 1.90443E-04 1.17584E-04 7.28597E-05 0.00000E+00 0.00000E+00
  69.900 1.69397E-04 1.14361E-04 5.50367E-05 0.00000E+00 0.00000E+00
  70.000 1.46398E-04 1.09184E-04 3.72135E-05 0.00000E+00 0.00000E+00
  70.100 1.38204E-04 1.02851E-04 3.53529E-05 0.00000E+00 0.00000E+00
  70.200 1.29743E-04 9.62508E-05 3.34922E-05 0.00000E+00 0.00000E+00
  70.300 1.21885E-04 9.02532E-05 3.16315E-05 0.00000E+00 0.00000E+00
  70.400 1.15366E-04 8.55956E-05 2.97708E-05 0.00000E+00 0.00000E+00
  70.500 1.10703E-04 8.27924E-05 2.79102E-05 0.00000E+00 0.00000E+00
  70.600 1.08131E-04 8.20815E-05 2.60495E-05 0.00000E+00 0.00000E+00
  70.700 1.07596E-04 8.34074E-05 2.41889E-05 0.00000E+00 0.00000E+00
  70.800 1.08772E-04 8.64435E-05 2.23281E-05 0.00000E+00 0.00000E+00
  70.900 1.11114E-04 9.06462E-05 2.04674E-05 0.00000E+00 0.00000E+00
  71.000 1.13942E-04 9.53348E-05 1.86068E-05 0.00000E+00 0.00000E+00
  71.100 1.16526E-04 9.97803E-05 1.67461E-05 0.00000E+00 0.00000E+00
  71.200 1.18179E-04 1.03294E-04 1.48855E-05 0.00000E+00 0.00000E+00
  71.300 1.18329E-04 1.05304E-04 1.30247E-05 0.00000E+00 0.00000E+00
  71.400 1.16577E-04 1.05413E-04 1.11640E-05 0.00000E+00 0.00000E+00
  71.500 1.12730E-04 1.03426E-04 9.30339E-06 0.00000E+00 0.00000E+00
  71.600 1.06799E-04 9.93567E-05 7.44274E-06 0.00000E+00 0.00000E+00
  71.700 9.89845E-05 9.34024E-05 5.58209E-06 0.00000E+00 0.00000E+00
  71.800 8.96272E-05 8.59058E-05 3.72130E-06 0.00000E+00 0.00000E+00
  71.900 7.91651E-05 7.73044E-05 1.86065E-06 0.00000E+00 0.00000E+00
  72.000 6.80720E-05 6.80720E-05 0.00000E+00 0.00000E+00 0.00000E+00
  72.100 5.86703E-05 5.86703E-05 0.00000E+00 0.00000E+00 0.00000E+00
  72.200 4.95084E-05 4.95084E-05 0.00000E+00 0.00000E+00 0.00000E+00
  72.300 4.09142E-05 4.09142E-05 0.00000E+00 0.00000E+00 0.00000E+00
  72.400 3.31246E-05 3.31246E-05 0.00000E+00 0.00000E+00 0.00000E+00
  72.500 2.62800E-05 2.62800E-05 0.00000E+00 0.00000E+00 0.00000E+00
  72.600 2.04366E-05 2.04366E-05 0.00000E+00 0.00000E+00 0.00000E+00
  72.700 1.55812E-05 1.55812E-05 0.00000E+00 0.00000E+00 0.00000E+00
  72.800 1.16482E-05 1.16482E-05 0.00000E+00 0.00000E+00 0.00000E+00
  72.900 8.54006E-06 8.54006E-06 0.00000E+00 0.00000E+00 0.00000E+00
  73.000 6.14075E-06 6.14075E-06 0.00000E+00 0.00000E+00 0.00000E+00
  73.100 4.33057E-06 4.33057E-06 0.00000E+00 0.00000E+00 0.00000E+00
  73.200 2.99511E-06 2.99511E-06 0.00000E+00 0.00000E+00 0.00000E+00
  73.300 2.03128E-06 2.03128E-06 0.00000E+00 0.00000E+00 0.00000E+00
  73.400 1.35078E-06 1.35078E-06 0.00000E+00 0.00000E+00 0.00000E+00
  73.500 8.80578E-07 8.80578E-07 0.00000E+00 0.00000E+00 0.00000E+00
  73.600 5.62640E-07 5.62640E-07 0.00000E+00 0.00000E+00 0.00000E+00
  73.700 3.52272E-07 3.52272E-07 0.00000E+00 0.00000E+00 0.00000E+00
  73.800 2.16068E-07 2.16068E-07 0.00000E+00 0.00000E+00 0.00000E+00
  73.900 1.29806E-07 1.29806E-07 0.00000E+00 0.00000E+00 0.00000E+00
  74.000 7.63605E-08 7.63605E-08 0.00000E+00 0.00000E+00 0.00000E+00
  74.100 4.39756E-08 4.39756E-08 0.00000E+00 0.00000E+00 0.00000E+00
  74.200 2.47870E-08 2.47870E-08 0.00000E+00 0.00000E+00 0.00000E+00
  74.300 1.36707E-08 1.36707E-08 0.00000E+00 0.00000E+00 0.00000E+00
  74.400 7.37676E-09 7.37676E-09 0.00000E+00 0.00000E+00 0.00000E+00
  74.500 3.89356E-09 3.89356E-09 0.00000E+00 0.00000E+00 0.00000E+00
  74.600 2.00984E-09 2.00984E-09 0.00000E+00 0.00000E+00 0.00000E+00
  74.700 1.01447E-09 1.01447E-09 0.00000E+00 0.00000E+00 0.00000E+00
  74.800 5.00613E-10 5.00613E-10 0.00000E+00 0.00000E+00 0.00000E+00
  74.900 2.41509E-10 2.41509E-10 0.00000E+00 0.00000E+00 0.00000E+00
  75.000 1.13885E-10 1.13885E-10 0.00000E+00 0.00000E+00 0.00000E+00
  75.100 5.24868E-11 5.24868E-11 0.00000E+00 0.00000E+00 0.00000E+00
  75.200 2.36400E-11 2.36400E-11 0.00000E+00 0.00000E+00 0.00000E+00
  75.300 1.04038E-11 1.04038E-11 0.00000E+00 0.00000E+00 0.00000E+00
  75.400 4.47404E-12 4.47404E-12 0.00000E+00 0.00000E+00 0.00000E+00
  75.500 1.87980E-12 1.87980E-12 0.00000E+00 0.00000E+00 0.00000E+00
  75.600 7.71607E-13 7.71607E-13 0.00000E+00 0.00000E+00 0.00000E+00
  75.700 3.09401E-13 3.09401E-13 0.00000E+00 0.00000E+00 0.00000E+00
  75.800 1.21178E-13 1.21178E-13 0.00000E+00 0.00000E+00 0.00000E+00
  75.900 4.63589E-14 4.63589E-14 0.00000E+00 0.00000E+00 0.00000E+00
  76.000 1.73216E-14 1.73216E-14 0.00000E+00 0.00000E+00 0.00000E+00
  76.100 6.32059E-15 6.32059E-15 0.00000E+00 0.00000E+00 0.00000E+00
  76.200 2.25220E-15 2.25220E-15 0.00000E+00 0.00000E+00 0.00000E+00
  76.300 7.83551E-16 7.83551E-16 0.00000E+00 0.00000E+00 0.00000E+00
  76.400 2.66180E-16 2.66180E-16 0.00000E+00 0.00000E+00 0.00000E+00
  76.500 8.82793E-17 8.82793E-17 0.00000E+00 0.00000E+00 0.00000E+00
  76.600 2.85814E-17 2.85814E-17 0.00000E+00 0.00000E+00 0.00000E+00
  76.700 9.03261E-18 9.03261E-18 0.00000E+00 0.00000E+00 0.00000E+00
  76.800 2.78593E-18 2.78593E-18 0.00000E+00 0.00000E+00 0.00000E+00
  76.900 8.38682E-19 8.38682E-19 0.00000E+00 0.00000E+00 0.00000E+00
  77.000 2.46387E-19 2.46387E-19 0.00000E+00 0.00000E+00 0.00000E+00
  77.100 7.06312E-20 7.06312E-20 0.00000E+00 0.00000E+00 0.00000E+00
  77.200 1.97558E-20 1.97558E-20 0.00000E+00 0.00000E+00 0.00000E+00
  77.300 5.39057E-21 5.39057E-21 0.00000E+00 0.00000E+00 0.00000E+00
  77.400 1.43505E-21 1.43505E-21 0.00000E+00 0.00000E+00 0.00000E+00
  77.500 3.72664E-22 3.72664E-22 0.00000E+00 0.00000E+00 0.00000E+00
  77.600 9.43949E-23 9.43949E-23 0.00000E+00 0.00000E+00 0.00000E+00
  77.700 2.33202E-23 2.33202E-23 0.00000E+00 0.00000E+00 0.00000E+00
  77.800 5.61808E-24 5.61808E-24 0.00000E+00 0.00000E+00 0.00000E+00
  77.900 1.32002E-24 1.32002E-24 0.00000E+00 0.00000E+00 0.00000E+00
  78.000 3.02438E-25 3.02438E-25 0.00000E+00 0.00000E+00 0.00000E+00
  78.100 6.75659E-26 6.75659E-26 0.00000E+00 0.00000E+00 0.00000E+00
  78.200 1.47174E-26 1.47174E-26 0.00000E+00 0.00000E+00 0.00000E+00
  78.300 3.12514E-27 3.12514E-27 0.00000E+00 0.00000E+00 0.00000E+00
  78.400 6.47024E-28 6.47024E-28 0.00000E+00 0.00000E+00 0.00000E+00
  78.500 1.30593E-28 1.30593E-28 0.00000E+00 0.00000E+00 0.00000E+00
  78.600 2.56943E-29 2.56943E-29 0.00000E+00 0.00000E+00 0.00000E+00
  78.700 4.92787E-30 4.92787E-30 0.00000E+00 0.00000E+00 0.00000E+00
  78.800 9.21120E-31 9.21120E-31 0.00000E+00 0.00000E+00 0.00000E+00
  78.900 1.67841E-31 1.67841E-31 0.00000E+00 0.00000E+00 0.00000E+00
  79.000 2.98083E-32 2.98083E-32 0.00000E+00 0.00000E+00 0.00000E+00
  79.100 5.15960E-33 5.15960E-33 0.00000E+00 0.00000E+00 0.00000E+00
  79.200 8.70417E-34 8.70417E-34 0.00000E+00 0.00000E+00 0.00000E+00
  79.300 1.43086E-34 1.43086E-34 0.00000E+00 0.00000E+00 0.00000E+00
  79.400 2.29261E-35 2.29261E-35 0.00000E+00 0.00000E+00 0.00000E+00
  79.500 3.57983E-36 3.57983E-36 0.00000E+00 0.00000E+00 0.00000E+00
  79.600 5.44727E-37 5.44727E-37 0.00000E+00 0.00000E+00 0.00000E+00
  79.700 8.07748E-38 8.07748E-38 0.00000E+00 0.00000E+00 0.00000E+00
  79.800 1.16703E-38 1.16703E-38 0.00000E+00 0.00000E+00 0.00000E+00
  79.900 1.64328E-39 1.64328E-39 0.00000E+00 0.00000E+00 0.00000E+00
  80.000 2.25477E-40 2.25477E-40 0.00000E+00 0.00000E+00 0.00000E+00
  80.100 3.01447E-41 3.01447E-41 0.00000E+00 0.00000E+00 0.00000E+00
  80.200 3.92784E-42 3.92784E-42 0.00000E+00 0.00000E+00 0.00000E+00
  80.300 4.98862E-43 4.98862E-43 0.00000E+00 0.00000E+00 0.00000E+00
  80.400 6.16571E-44 6.16571E-44 0.00000E+00 0.00000E+00 0.00000E+00
  80.500 7.00649E-45 7.00649E-45 0.00000E+00 0.00000E+00 0.00000E+00
  80.600 1.40130E-45 1.40130E-45 0.00000E+00 0.00000E+00 0.00000E+00
  80.700 0.00000E+00 0.00000E+00 0.00000E+00 0.00000E+00 0.00000E+00
  80.800 0.00000E+00 0.00000E+00 0.00000E+00 0.00000E+00 0.00000E+00
  80.900 0.00000E+00 0.00000E+00 0.00000E+00 0.00000E+00 0.00000E+00
  81.000 0.00000E+00 0.00000E+00 0.00000E+00 0.00000E+00 0.00000E+00
  81.100 0.00000E+00 0.00000E+00 0.00000E+00 0.00000E+00 0.00000E+00
  81.200 0.00000E+00 0.00000E+00 0.00000E+00 0.00000E+00 0.00000E+00
  81.300 0.00000E+00 0.00000E+00 0.00000E+00 0.00000E+00 0.00000E+00
  81.400 0.00000E+00 0.00000E+00 0.00000E+00 0.00000E+00 0.00000E+00
  81.500 0.00000E+00 0.00000E+00 0.00000E+00 0.00000E+00 0.00000E+00
  81.600 0.00000E+00 0.00000E+00 0.00000E+00 0.00000E+00 0.00000E+00
  81.700 0.00000E+00 0.00000E+00 0.00000E+00 0.00000E+00 0.00000E+00
  81.800 0.00000E+00 0.00000E+00 0.00000E+00 0.00000E+00 0.00000E+00
  81.900 0.00000E+00 0.00000E+00 0.00000E+00 0.00000E+00 0.00000E+00
  82.000 0.00000E+00 0.00000E+00 0.00000E+00 0.00000E+00 0.00000E+00
